Photodiode Viewing Angle (Degrees) - Plot 0	Lock-in Signal Amplitude (V) - Plot 0
-29.9991	0.00252105
-29.4991	0.00257351
-28.9999	0.00254966
-28.4991	0.00232889
-27.9991	0.00206377
-27.4991	0.00186539
-26.9991	0.00174523
-26.4991	0.00168038
-25.9991	0.00165177
-25.4991	0.00163222
-24.9991	0.00162221
-24.4992	0.0016141
-23.9992	0.00160886
-23.4992	0.00160313
-23.0002	0.00160266
-22.4992	0.00159837
-21.9992	0.00159598
-21.4992	0.00159312
-20.9992	0.00159646
-20.4992	0.00159455
-19.9992	0.00159455
-19.4992	0.0016017
-18.9992	0.00159884
-18.4992	0.00160409
-17.9992	0.00160838
-17.4992	0.00161362
-16.9992	0.00160981
-16.4992	0.00160886
-15.9992	0.00161744
-15.4992	0.00161887
-14.9992	0.0016265
-14.4992	0.00163079
-13.9992	0.00163508
-13.4992	0.00163985
-12.9992	0.00164653
-12.4992	0.00164986
-11.9992	0.00165082
-11.4993	0.0016532
-10.9993	0.00165463
-10.4993	0.00165845
-9.99926	0.00166083
-9.49926	0.0016718
-8.99927	0.00167514
-8.49928	0.00167943
-7.99928	0.00168324
-7.49928	0.00168658
-6.99928	0.00168658
-6.49929	0.00168944
-5.99929	0.00169278
-5.4994	0.00169898
-4.9993	0.00170136
-4.49931	0.00170375
-3.99931	0.00170947
-3.49931	0.00171471
-2.99931	0.0017171
-2.49932	0.00172473
-1.99932	0.0017233
-1.49932	0.00172663
-0.999329	0.00172854
-0.499336	0.00172854
0.000663757	0.00172663
0.500656	0.00172616
1.00065	0.00173236
1.50065	0.0017376
2.00065	0.00174428
2.50064	0.00174332
3.00063	0.00174571
3.50063	0.00175048
4.00063	0.00175095
4.50063	0.00175143
5.00062	0.00175381
5.50062	0.00175238
6.00062	0.00175381
6.50061	0.00175811
7.0006	0.00176049
7.5006	0.00176097
8.0006	0.00176335
8.5006	0.00176287
8.99919	0.00176144
9.49886	0.00175858
10.0006	0.00175715
10.5006	0.00175477
11.0006	0.0017562
11.5006	0.00175858
12.0006	0.00176287
12.5006	0.00176192
13.0006	0.00176049
13.5006	0.00176383
14.0005	0.00176478
14.5005	0.00176049
15.0005	0.00176192
15.5005	0.00175811
16.0005	0.00176383
16.5005	0.00176812
17.0005	0.00176621
17.5005	0.00176287
18.0005	0.00176049
18.5005	0.0017643
19.0005	0.00176621
19.5005	0.00176287
20.0005	0.00175954
20.5005	0.00176049
21.0005	0.00176144
21.5005	0.00175811
22.0005	0.00176049
22.5005	0.00176287
23.0005	0.00176144
23.5005	0.00176049
24.0005	0.00175954
24.5005	0.00175477
24.9981	0.00174857
25.5005	0.00174285
26.0005	0.00173522
26.5005	0.00173045
27.0005	0.00172902
27.5005	0.0017252
28.0004	0.00172616
28.5004	0.00172425
29.0004	0.0017171
29.5004	0.00170899
30.0004	0.00170756
30.4988	0.00170136
30.9989	0.00170089
31.5004	0.00170851
32.0004	0.00170661
32.5004	0.00170708
33.0004	0.00171042
33.5004	0.00170851
34.0004	0.00170375
34.5004	0.00169564
35.0004	0.00168658
35.5004	0.0016842
36.0004	0.00167228
36.5004	0.00166894
37.0004	0.00166322
37.5004	0.00165797
38.0004	0.00165416
38.5004	0.00165129
39.0004	0.00164986
39.5003	0.001647
40.0004	0.00164033
40.5003	0.00163413
41.0003	0.00162793
41.5003	0.00162459
42.0003	0.00162078
42.5003	0.00161124
43.0003	0.00161315
43.5003	0.00160886
44.0003	0.0016079
44.5003	0.0016017
45.0003	0.00159694
45.5003	0.00158978
46.0003	0.00158788
46.5003	0.00158788
47.0003	0.00158358
47.5003	0.00157548
48.0003	0.00157405
48.5003	0.00157405
49.0003	0.00157214
49.5003	0.00157023
50.0003	0.00156451
50.5003	0.00156546
51.0003	0.00156213
51.5003	0.00155783
52.0003	0.00155116
52.5003	0.00154496
53.0002	0.00154162
53.5002	0.00153781
54.0002	0.00153161
54.5002	0.00152255
55.0002	0.0015154
55.5002	0.00151063
56.0002	0.00150109
56.5002	0.00149585
57.0002	0.00148345
57.5002	0.00147725
58.0002	0.00146151
58.5002	0.00145102
59.0002	0.00143004
59.5002	0.00142813
60.0002	0.00141431
60.5002	0.00139619
61.0002	0.00137997
61.5002	0.00136519
62.0002	0.00134612
62.5002	0.00132657
63.0002	0.00130511
63.5002	0.00128938
64.0002	0.00128079
64.5002	0.0012622
65.0002	0.00124312
65.5002	0.0012188
66.0001	0.00118495
66.5001	0.00115634
67.0001	0.00111724
67.5001	0.00108577
68.0001	0.00104857
68.5001	0.00101519
69.0001	0.000969414
69.5001	0.000931267
70.0001	0.00089455
70.5001	0.000849251
71.0001	0.000814442
71.5001	0.000774864
72.0001	0.00073624
72.5001	0.000697616
73.0001	0.000667576
73.5001	0.000637058
74.0001	0.000613216
74.5001	0.00058556
75.0001	0.000560287
75.5001	0.00054026
76.0001	0.000521664
76.4998	0.000496868
77	0.000474455
77.5001	0.000462057
78.0001	0.000443937
78.5001	0.000429632
79	0.000420095
79.5	0.00041342
80	0.000399115
80.5	0.000380041
81	0.000367643
81.5	0.000354292
82	0.000341894
82.5	0.000333788
83	0.000325205
83.5	0.000314714
84	0.000311377
84.5	0.000302793
85	0.000296595
85	0.000291349
