Photodiode Viewing Angle (Degrees) - Plot 0	Lock-in Signal Amplitude (V) - Plot 0
-0.00386047	0.000396939
0.12114	0.00039974
0.246155	0.000397118
0.371155	0.000397297
0.49617	0.000399085
0.62117	0.000398131
0.74617	0.000394734
0.871185	0.000394763
0.996185	0.000396701
1.12119	0.000395359
1.2462	0.000393214
1.3712	0.000393333
1.4962	0.000393094
1.62122	0.000392618
1.74622	0.000397148
1.87122	0.000392498
1.99623	0.000393601
2.12123	0.000394048
2.24625	0.000395807
2.37125	0.000392707
2.49625	0.000394793
2.62126	0.00039524
2.74626	0.000391813
2.87126	0.000394734
2.99504	0.000391992
3.11943	0.000391962
3.24463	0.00039229
3.36955	0.000391008
3.49629	0.000388982
3.62131	0.000388356
3.74631	0.000390204
3.87131	0.000392588
3.99632	0.000395568
4.12132	0.000393661
4.24632	0.000395687
4.37134	0.000395568
4.49634	0.000393482
4.62134	0.000393154
4.74635	0.000393571
4.87135	0.000391187
4.99635	0.000392796
5.12137	0.000397356
5.24637	0.000391783
5.37138	0.000394763
5.49638	0.000390919
5.62138	0.000391932
5.7464	0.000393065
5.8714	0.000393005
5.9964	0.000394614
6.12141	0.000394138
6.24641	0.000397088
6.37143	0.00039533
6.49643	0.000394585
6.62143	0.000396373
6.74644	0.00039527
6.87144	0.000394614
6.99646	0.000397684
7.12147	0.000393691
7.24647	0.000396522
7.37147	0.000395657
7.49648	0.00039372
7.62148	0.000397237
7.74648	0.00039831
7.8715	0.000396999
7.9965	0.000397028
8.1215	0.000395717
8.24651	0.000396909
8.37151	0.00039533
8.49653	0.000394197
8.62153	0.000391902
8.74653	0.000392141
8.87154	0.000393631
8.99654	0.000390561
9.12155	0.000391068
9.24656	0.000390681
9.37156	0.000387819
9.49645	0.000389637
9.6212	0.000387968
9.74658	0.00038472
9.87061	0.000387879
9.99607	0.000390025
10.1213	0.000386657
10.2453	0.000386002
10.3706	0.000388207
10.4966	0.000388326
10.6216	0.000386866
10.7466	0.000386508
10.8716	0.000389548
10.9966	0.000394912
11.1216	0.000388773
11.2466	0.000392796
11.3717	0.000389161
11.4967	0.000389131
11.6217	0.000389965
11.7467	0.000393214
11.8717	0.000391724
11.9967	0.000394138
12.1217	0.000394734
12.2467	0.000390442
12.3717	0.000392767
12.4961	0.000395628
12.6204	0.000394287
12.745	0.000396879
12.8717	0.000391247
12.9953	0.000389429
13.1204	0.000391873
13.2467	0.00039083
13.3717	0.000390651
13.4967	0.000390859
13.6217	0.000387849
13.7468	0.000386717
13.8718	0.000385584
13.9968	0.000383439
14.1218	0.000384213
14.2468	0.000382246
14.3718	0.000384452
14.4968	0.000383081
14.6218	0.000385376
14.7468	0.000384988
14.8718	0.000383588
14.9968	0.000383141
15.1218	0.00038171
15.2468	0.000383379
15.3718	0.00038171
15.4968	0.000380458
15.6218	0.000380518
15.7468	0.000387432
15.8719	0.000382693
15.9969	0.000383826
16.1219	0.000385793
16.2469	0.000384064
16.3719	0.000385018
16.4969	0.000387253
16.6219	0.000385227
16.7469	0.000387581
16.8719	0.000384124
16.9969	0.000387015
17.1219	0.000387104
17.2469	0.000387253
17.3714	0.00038779
17.4954	0.000383886
17.6219	0.000384809
17.7469	0.000378968
17.872	0.000379266
17.997	0.000376495
18.122	0.000376524
18.247	0.000378491
18.372	0.000374915
18.497	0.000373187
18.622	0.000374706
18.747	0.000376256
18.872	0.000374766
18.997	0.000375571
19.122	0.000375392
19.247	0.000376107
19.372	0.000378223
19.497	0.000380339
19.622	0.000378849
19.747	0.000378581
19.872	0.000380011
19.997	0.000384839
20.1221	0.000380816
20.2471	0.000382366
20.3721	0.000380905
20.4971	0.000379713
20.6221	0.000384333
20.7471	0.000383439
20.8721	0.000382425
20.9971	0.000383081
21.1221	0.000379058
21.2471	0.000378015
21.3721	0.000380071
21.4971	0.000378909
21.6221	0.000376107
21.7471	0.000375958
21.8721	0.000376912
21.9971	0.000374706
22.1221	0.000374915
22.2471	0.000372292
22.3722	0.00037575
22.4972	0.00037417
22.6222	0.000371339
22.7472	0.000371637
22.8722	0.000374289
22.9972	0.000374021
23.1222	0.000374081
23.2472	0.000371309
23.3722	0.000372441
23.4972	0.000373365
23.6222	0.00037569
23.7472	0.000373574
23.8722	0.000373723
23.9972	0.00037575
24.1222	0.000375332
24.2472	0.000373693
24.3722	0.000375004
24.4973	0.000371935
24.6213	0.000372799
24.7473	0.000378551
24.8723	0.000372918
24.9973	0.000372978
25.1223	0.000370385
25.2473	0.000369044
25.3723	0.000370683
25.4973	0.000367554
25.6223	0.00037265
25.7473	0.000367971
25.8723	0.000365825
25.9973	0.000366421
26.1223	0.000367226
26.2473	0.000360997
26.3723	0.000367107
26.4973	0.000361951
26.6224	0.000368984
26.7474	0.000370147
26.8724	0.000368388
26.9974	0.00036812
27.1224	0.000369521
27.2474	0.000371249
27.3724	0.00037122
27.4974	0.000370027
27.6224	0.000367166
27.7474	0.000369908
27.8724	0.000366898
27.9974	0.000368925
28.1224	0.000365885
28.2474	0.000365349
28.3724	0.000364216
28.4974	0.000363948
28.6224	0.000362994
28.7474	0.000359537
28.8724	0.000361593
28.9975	0.000361742
29.1225	0.000362726
29.2475	0.000363918
29.3725	0.000363709
29.4975	0.000365587
29.6225	0.000364305
29.7475	0.000362577
29.8725	0.000362189
29.9975	0.00036821
30.1225	0.000362488
30.2475	0.000366421
30.3725	0.000364931
30.4975	0.000364216
30.6225	0.000368686
30.7475	0.000366541
30.8725	0.000370802
30.9975	0.000364395
31.1226	0.000366094
31.2476	0.000367494
31.3726	0.000366988
31.4976	0.000361713
31.6226	0.000364365
31.7476	0.000365885
31.8726	0.00036365
31.9976	0.000360699
32.1226	0.000362607
32.2476	0.000360044
32.3726	0.000362547
32.4976	0.000361504
32.6226	0.000363501
32.7476	0.000361564
32.8726	0.000363739
32.9976	0.000362517
33.1226	0.000360223
33.2477	0.000362488
33.3727	0.000364872
33.4977	0.000366898
33.6227	0.000363531
33.7477	0.000365974
33.8727	0.000362488
33.9977	0.000364186
34.1227	0.000365706
34.2477	0.000361206
34.3727	0.000364633
34.4977	0.000365051
34.6227	0.000361921
34.7477	0.000364276
34.8727	0.000364723
34.9977	0.000365676
35.1227	0.00036359
35.2477	0.000366004
35.3727	0.000358315
35.4977	0.000355454
35.6228	0.000355693
35.7478	0.000356855
35.8728	0.000354977
35.9978	0.000357749
36.1228	0.000356259
36.2478	0.000352593
36.3728	0.000352206
36.4978	0.000352921
36.6228	0.000353428
36.7478	0.000354202
36.8728	0.000354083
36.9978	0.000353457
37.1228	0.000351848
37.2478	0.000356497
37.3728	0.00035009
37.4978	0.000355395
37.6228	0.000355871
37.7479	0.000353577
37.8729	0.000353696
37.9979	0.000355633
38.1229	0.000353636
38.2479	0.000354649
38.3729	0.000355484
38.4979	0.000355454
38.6229	0.000356259
38.7479	0.00035754
38.8729	0.000358047
38.9979	0.00035757
39.1229	0.000357689
39.2479	0.000356944
39.3729	0.000353934
39.4979	0.000354262
39.6229	0.000350805
39.7479	0.000352355
39.8729	0.000349851
39.998	0.000350835
40.123	0.000352951
40.248	0.000344457
40.373	0.000347795
40.498	0.000348331
40.623	0.000347586
40.748	0.000346692
40.873	0.000339719
40.998	0.000340791
41.123	0.000339868
41.248	0.000336768
41.373	0.000332447
41.498	0.000331851
41.623	0.000333609
41.7371	0.000333758
41.873	0.000334295
41.998	0.000335874
42.123	0.000337007
42.2481	0.000337513
42.3731	0.000340076
42.4981	0.000342937
42.6231	0.000342818
42.7481	0.000340881
42.8731	0.000341268
42.9981	0.000338318
43.1231	0.000334712
43.2481	0.000333669
43.3731	0.000328692
43.4981	0.000328572
43.6231	0.00032449
43.7481	0.000325056
43.8731	0.000320705
43.9981	0.000321897
44.1231	0.000317724
44.2482	0.000319185
44.3732	0.000317426
44.4982	0.000316771
44.6232	0.000313224
44.7482	0.000322552
44.8732	0.000318618
44.9982	0.000318231
45.1232	0.000317456
45.2482	0.000317814
45.3732	0.000316622
45.4982	0.000313105
45.6232	0.000311883
45.7482	0.000310363
45.8732	0.00030628
45.9982	0.000305803
46.1232	0.000303509
46.2482	0.000299336
46.3733	0.000297936
46.4983	0.00029576
46.6233	0.000293048
46.7483	0.000293525
46.8733	0.000291379
46.9983	0.000289293
47.1233	0.000289949
47.2483	0.000293883
47.3733	0.000292929
47.4983	0.000291558
47.6233	0.000294628
47.7483	0.000291886
47.8733	0.000289144
47.9983	0.000292005
48.1233	0.000289323
48.2483	0.000288071
48.3733	0.00028524
48.4983	0.000284763
48.6233	0.000282796
48.7484	0.000281783
48.8734	0.000280859
48.9984	0.000278505
49.1234	0.000275882
49.2484	0.000272544
49.3734	0.000273677
49.4984	0.000268372
49.6234	0.00026706
49.7484	0.000268819
49.8734	0.000265779
49.9984	0.000266166
50.1234	0.000268282
50.2484	0.000266166
50.3734	0.000266375
50.4984	0.000267478
50.6234	0.000266256
50.7484	0.00026569
50.8735	0.000264855
50.9985	0.000264676
51.1235	0.000263991
51.2485	0.000264855
51.3735	0.000264199
51.4985	0.000259759
51.6235	0.000260534
51.7485	0.000257703
51.8735	0.000256957
51.9985	0.000254424
52.1234	0.00025359
52.2483	0.000251712
52.3735	0.000250043
52.4981	0.000249596
52.6231	0.000249239
52.7485	0.00024757
52.8735	0.000248106
52.9985	0.000248643
53.1236	0.000244112
53.2486	0.000245543
53.3736	0.000244052
53.4985	0.000243516
53.6236	0.000242204
53.7486	0.000239433
53.8736	0.000245394
53.9986	0.00024283
54.1236	0.000239433
54.2486	0.000241281
54.3736	0.000238658
54.4986	0.000237406
54.6236	0.000233919
54.7486	0.000233919
54.8736	0.000233294
54.9986	0.000233651
55.1236	0.000232459
55.2486	0.000232489
55.3737	0.000231565
55.4987	0.000226618
55.6237	0.000227899
55.7487	0.000226975
55.8737	0.000224412
55.9987	0.000223936
56.1237	0.000217677
56.2487	0.00021881
56.3737	0.000213922
56.4987	0.000216336
56.6237	0.000215293
56.7487	0.000214667
56.8737	0.000213654
56.9987	0.000212342
57.1237	0.0002127
57.2487	0.000209839
57.3737	0.000212491
57.4987	0.000210048
57.6238	0.000210197
57.7488	0.000209094
57.8738	0.000210942
57.9988	0.000214041
58.1238	0.000209958
58.2488	0.000210256
58.3738	0.00020972
58.4988	0.000207634
58.6238	0.000204385
58.7488	0.000206352
58.8738	0.000202418
58.9988	0.000206799
59.1238	0.00020218
59.2488	0.000200422
59.3738	0.000197769
59.4988	0.00020215
59.6238	0.00019759
59.7489	0.000194938
59.8739	0.000190736
59.9989	0.0001871
60.1239	0.000191272
60.2489	0.000187011
60.3739	0.000189782
60.4989	0.000187279
60.6239	0.000187517
60.7489	0.000192375
60.8739	0.000188769
60.9989	0.000191064
61.1239	0.00018856
61.2489	0.00019017
61.3739	0.000189603
61.4989	0.000185491
61.6239	0.000183911
61.7489	0.000180394
61.874	0.000177295
61.999	0.000182034
62.124	0.000180812
62.249	0.000180245
62.374	0.000181378
62.499	0.000178666
62.624	0.000182779
62.749	0.00017956
62.874	0.000177414
62.999	0.000175954
63.124	0.000175775
63.249	0.000173748
63.374	0.000175
63.499	0.000169546
63.624	0.00016898
63.749	0.00017047
63.874	0.000166417
63.999	0.000165761
64.1241	0.000163467
64.2491	0.000163735
64.3741	0.000160814
64.4991	0.000162185
64.6241	0.000160099
64.7491	0.000160486
64.8741	0.000158519
64.9991	0.000156135
65.1241	0.000157804
65.2491	0.000155331
65.3741	0.000155629
65.4991	0.000156791
65.6241	0.000155033
65.7491	0.000151397
65.8741	0.000151576
65.9991	0.000150801
66.1241	0.000147701
66.2492	0.000151397
66.3742	0.000151874
66.4992	0.000152231
66.6242	0.000150026
66.7492	0.000150681
66.8742	0.00015083
66.9992	0.000149489
67.1242	0.000149668
67.2492	0.000154347
67.3742	0.000147701
67.4992	0.000146032
67.6242	0.00014487
67.7492	0.000138194
67.8742	0.000139565
67.9992	0.000134231
68.1242	0.000134767
68.2492	0.000130356
68.3742	0.000131459
68.4993	0.000127048
68.6243	0.000128479
68.7493	0.000133694
68.8743	0.000135393
68.9993	0.000133456
69.1243	0.000133307
69.2493	0.000132383
69.3743	0.000131072
69.4993	0.000129492
69.6243	0.000129015
69.7493	0.000125886
69.8743	0.000124843
69.9993	0.000123502
70.1243	0.000124932
70.2493	0.000123532
70.3743	0.000120819
70.4993	0.000123561
70.6244	0.000121266
70.7494	0.000117273
70.8744	0.000117004
70.9994	0.000118196
71.1244	0.000114769
71.2494	0.000116706
71.3744	0.000116736
71.4994	0.000116766
71.6244	0.000117451
71.7494	0.000111729
71.8744	0.000111461
71.9994	0.000111074
72.1244	0.000109882
72.2494	0.000108153
72.3744	0.000106514
72.4994	0.000106425
72.6244	0.000105829
72.7494	0.000108898
72.8745	0.000104338
72.9995	0.00010261
73.1245	0.000105173
73.2495	0.000104636
73.3745	0.000103623
73.4995	0.000106246
73.6245	0.00010553
73.7495	0.000104249
73.8745	0.000102789
73.9995	9.96E-05
74.1245	9.66E-05
74.2495	9.22E-05
74.3745	9.45E-05
74.4995	9.27E-05
74.6245	9.16E-05
74.7495	9.22E-05
74.8745	8.79E-05
74.9995	8.98E-05
75.1246	8.90E-05
75.2496	8.62E-05
75.3742	8.57E-05
75.4996	8.52E-05
75.6246	8.31E-05
75.7496	7.98E-05
75.8746	7.81E-05
75.9996	8.40E-05
76.1246	8.42E-05
76.2496	8.71E-05
76.3746	8.41E-05
76.4996	8.59E-05
76.6246	8.32E-05
76.7496	7.99E-05
76.8746	7.73E-05
76.9996	7.29E-05
77.1246	7.53E-05
77.2496	7.40E-05
77.3747	7.12E-05
77.4997	7.46E-05
77.6247	7.21E-05
77.7497	7.16E-05
77.8747	6.88E-05
77.9997	7.01E-05
78.1247	6.91E-05
78.2497	7.08E-05
78.3747	6.82E-05
78.4997	7.13E-05
78.6247	6.61E-05
78.7497	6.74E-05
78.8747	6.16E-05
78.9997	6.29E-05
79.1247	5.89E-05
79.2497	5.60E-05
79.3747	5.63E-05
79.4998	5.93E-05
79.6248	6.09E-05
79.7498	5.92E-05
79.8748	5.61E-05
79.9998	5.78E-05
80.1248	5.88E-05
80.2498	5.61E-05
80.3748	5.39E-05
80.4998	5.43E-05
80.6248	5.45E-05
80.7498	5.22E-05
80.8748	5.16E-05
80.9998	4.88E-05
81.1248	4.74E-05
81.2498	4.82E-05
81.3748	4.85E-05
81.4998	4.63E-05
81.6248	4.68E-05
81.7499	4.46E-05
81.8749	4.68E-05
81.9999	4.60E-05
82.1249	4.60E-05
82.2499	4.41E-05
82.3749	4.45E-05
82.4999	4.70E-05
82.6249	4.27E-05
82.7499	3.82E-05
82.8749	3.50E-05
82.9999	4.01E-05
83.1249	3.85E-05
83.2499	3.97E-05
83.3749	4.01E-05
83.4999	3.78E-05
83.6249	3.35E-05
83.7499	2.98E-05
83.875	2.44E-05
84	2.43E-05
84.125	2.39E-05
84.25	1.96E-05
84.375	1.80E-05
84.5	1.77E-05
84.625	2.29E-05
84.75	1.76E-05
84.8744	1.75E-05
85	1.83E-05
85	1.70E-05
-0.00386047	0.000399681
0.12114	0.000400068
0.246155	0.000399472
0.371155	0.000400038
0.49617	0.000395687
0.62117	0.000396939
0.74617	0.000395985
0.871185	0.000394078
0.996185	0.000396492
1.12119	0.000397833
1.2462	0.00039679
1.3712	0.000395568
1.4962	0.000396611
1.62122	0.000392022
1.74622	0.000396701
1.87122	0.000395508
1.99623	0.000392528
2.12123	0.000395002
2.24625	0.000395508
2.37125	0.000393184
2.49625	0.000394167
2.62126	0.000394823
2.74626	0.000391992
2.87126	0.000392409
2.99628	0.000389041
3.12128	0.000389786
3.24628	0.0003908
3.37129	0.000389548
3.49629	0.000392439
3.62131	0.000391694
3.74631	0.000393661
3.87131	0.000392558
3.99632	0.00039375
4.12132	0.000395508
4.24632	0.00039223
4.37134	0.000394376
4.49634	0.000393065
4.62134	0.000396134
4.74635	0.000395091
4.87135	0.000393273
4.99635	0.000394465
5.12137	0.000390651
5.24637	0.000396432
5.37138	0.000393452
5.49638	0.000394436
5.62138	0.000394048
5.7464	0.00039378
5.8714	0.000394465
5.9964	0.000396462
6.12141	0.000397058
6.24641	0.000393005
6.37143	0.00039682
6.49643	0.000393899
6.62143	0.000395747
6.74644	0.000396164
6.87144	0.000398042
6.99646	0.000395926
7.12147	0.000394942
7.24647	0.000395777
7.37147	0.000397535
7.49648	0.000396939
7.62148	0.000397237
7.74648	0.000394823
7.8715	0.000397803
7.9965	0.000396909
8.1215	0.000397595
8.24651	0.000395687
8.37151	0.000397088
8.49653	0.000393571
8.62153	0.000395151
8.74653	0.000392796
8.87154	0.000391724
8.99654	0.000390889
9.12155	0.000392141
9.24656	0.000387134
9.37156	0.000389161
9.49657	0.00038627
9.62157	0.000388267
9.74658	0.00038618
9.87159	0.000386657
9.99659	0.000388773
10.1216	0.00038773
10.2466	0.000385853
10.3716	0.00038919
10.4966	0.000387134
10.6216	0.000391366
10.7466	0.000388326
10.8716	0.000391664
10.9966	0.000394018
11.1216	0.000392647
11.2466	0.000392796
11.3717	0.0003908
11.4967	0.000395002
11.6217	0.000391753
11.7467	0.000390591
11.8717	0.000393005
11.9967	0.000393691
12.1217	0.000392767
12.2467	0.000391247
12.3717	0.000391038
12.4966	0.000390055
12.6217	0.00039381
12.7467	0.000393989
12.8717	0.000391187
12.9967	0.000394585
13.1217	0.000392171
13.2467	0.000392528
13.3717	0.000389459
13.4967	0.000391992
13.6217	0.000387939
13.7468	0.000387909
13.8718	0.00038624
13.9968	0.000381263
14.1218	0.000384184
14.2468	0.000383856
14.3718	0.000382664
14.4968	0.000385644
14.6218	0.000384899
14.7468	0.000381531
14.8718	0.000383558
14.9968	0.000382306
15.1218	0.000380488
15.2468	0.00038472
15.3718	0.000384899
15.4968	0.000381859
15.6218	0.000380816
15.7468	0.000384392
15.8719	0.000382634
15.9969	0.000383737
16.1219	0.00038174
16.2469	0.00038469
16.3719	0.000386866
16.4969	0.000386449
16.6219	0.000384005
16.7469	0.00038767
16.8719	0.000388505
16.9969	0.00038925
17.1219	0.000387104
17.2469	0.00038624
17.3719	0.000386031
17.4969	0.000382217
17.6219	0.000386389
17.7469	0.000382604
17.872	0.000382068
17.997	0.000379236
18.122	0.000380458
18.247	0.000377299
18.372	0.000376286
18.497	0.000377567
18.6219	0.00037575
18.747	0.000376822
18.872	0.00037715
18.997	0.00037718
19.122	0.000375988
19.247	0.00038025
19.372	0.000378491
19.497	0.000380786
19.622	0.000378789
19.747	0.000381859
19.872	0.000381144
19.997	0.000381948
20.1221	0.000379356
20.2471	0.000379683
20.3721	0.000383737
20.4971	0.000379236
20.6221	0.000379654
20.7471	0.000380011
20.8721	0.000382306
20.9971	0.000382932
21.1221	0.000379564
21.2471	0.000379326
21.3721	0.000378789
21.4971	0.000376524
21.6221	0.000377538
21.7471	0.000372561
21.8721	0.00037566
21.9971	0.000374408
22.1221	0.000376048
22.2471	0.000373276
22.3722	0.000371309
22.4972	0.000375511
22.6222	0.00037411
22.7472	0.000371726
22.8722	0.000370683
22.9972	0.000373872
23.1222	0.000375452
23.2472	0.000372084
23.3722	0.000375392
23.4972	0.000373067
23.6222	0.000374349
23.7472	0.000371518
23.8722	0.000376673
23.9972	0.000374408
24.1222	0.000375958
24.2472	0.000373127
24.3722	0.000375124
24.4973	0.000372143
24.6223	0.000374766
24.7473	0.000371607
24.8713	0.000374587
24.9963	0.00037122
25.1223	0.000371398
25.2473	0.000370534
25.3723	0.000368686
25.4973	0.000368567
25.6223	0.000369074
25.7473	0.000368299
25.8723	0.000368567
25.9973	0.000367226
26.1223	0.000363978
26.2473	0.000363829
26.3723	0.000366809
26.4973	0.000366868
26.6224	0.000366213
26.7474	0.000367077
26.8724	0.000370326
26.9974	0.000371011
27.1224	0.00037116
27.2474	0.000370236
27.3724	0.000371398
27.4974	0.000371011
27.6224	0.000369878
27.7458	0.000368567
27.8712	0.000365647
27.9974	0.000367882
28.1224	0.000364812
28.2474	0.00036666
28.3724	0.000365051
28.4974	0.000363203
28.6224	0.000364782
28.7474	0.000364425
28.8724	0.000360074
28.9975	0.000361295
29.1225	0.000358762
29.2475	0.000363799
29.3725	0.00036216
29.4975	0.000363173
29.6225	0.000364812
29.7475	0.000362905
29.8725	0.00036517
29.9975	0.000366243
30.1225	0.000362875
30.2475	0.000365617
30.3725	0.000365259
30.4975	0.00036809
30.6225	0.000363173
30.7475	0.000364603
30.8725	0.000366511
30.9975	0.000361564
31.1226	0.000365587
31.2476	0.000364872
31.3726	0.000367017
31.4976	0.000363441
31.6226	0.000362607
31.7476	0.000366004
31.8726	0.000364603
31.9976	0.000365617
32.1226	0.000361176
32.2476	0.000362875
32.3719	0.000360908
32.4962	0.000361802
32.6226	0.000363203
32.7476	0.000362338
32.8726	0.000363441
32.9976	0.000360521
33.1226	0.000363173
33.2477	0.000362666
33.3727	0.000365259
33.4977	0.000361623
33.6227	0.00036514
33.7477	0.000365349
33.8727	0.000362011
33.9977	0.000362637
34.1227	0.000364991
34.2477	0.000362607
34.3727	0.000365408
34.4977	0.000364216
34.6227	0.000364395
34.7477	0.000364216
34.8727	0.000365706
34.9977	0.000364156
35.1215	0.000363054
35.2477	0.000362309
35.3727	0.000358822
35.4977	0.000358971
35.6228	0.000359418
35.7478	0.000357034
35.8728	0.00035912
35.9978	0.000357868
36.1228	0.000356527
36.2478	0.000355722
36.3728	0.000353636
36.4978	0.000353338
36.6228	0.000352772
36.7478	0.000354202
36.8728	0.000351461
36.9978	0.000355275
37.1228	0.000354441
37.2478	0.00035456
37.3728	0.000355871
37.4978	0.000356706
37.6228	0.00035766
37.7479	0.000354918
37.8729	0.000354858
37.9979	0.000354173
38.1229	0.000354709
38.2479	0.000354292
38.3729	0.000355633
38.4979	0.000356259
38.6229	0.00035754
38.7479	0.000360848
38.8729	0.000359537
38.9979	0.000357749
39.1229	0.000358732
39.2479	0.000356497
39.3729	0.000357004
39.4979	0.000353606
39.6229	0.00035459
39.7479	0.000350656
39.8729	0.00034702
39.998	0.000350716
40.123	0.000352861
40.248	0.000348719
40.373	0.000348749
40.498	0.000348719
40.623	0.000348004
40.748	0.000344934
40.8712	0.000346603
40.998	0.000341775
41.123	0.000338467
41.248	0.000339778
41.373	0.000335934
41.498	0.000334831
41.623	0.000335159
41.748	0.000332655
41.873	0.000330837
41.998	0.000332357
42.123	0.000336291
42.2481	0.000338705
42.3731	0.000337275
42.4981	0.000337871
42.6231	0.000339152
42.7481	0.000340851
42.8731	0.000341984
42.9981	0.000338467
43.1231	0.000338228
43.2481	0.000334235
43.3731	0.000329556
43.4981	0.000330003
43.6231	0.00032899
43.7481	0.000326784
43.8731	0.000321956
43.998	0.000322195
44.1231	0.000321569
44.2482	0.000315221
44.3732	0.00031537
44.4982	0.000319989
44.6232	0.000320496
44.7482	0.000319095
44.8732	0.000317426
44.9982	0.00031984
45.1232	0.000320079
45.2482	0.000317784
45.3732	0.000317039
45.4982	0.000314506
45.6232	0.000312062
45.7482	0.000310155
45.8732	0.00031084
45.9982	0.000306578
46.1232	0.000302883
46.2482	0.000297876
46.3733	0.000299187
46.4983	0.000296922
46.6233	0.000297965
46.7483	0.000295045
46.8733	0.000291767
46.9983	0.000292333
47.1233	0.000291707
47.2483	0.000292422
47.3733	0.000296595
47.4983	0.0002898
47.6233	0.000294449
47.7483	0.000292392
47.8733	0.000290098
47.9983	0.00029573
48.1233	0.000286432
48.2483	0.000288488
48.3733	0.000286462
48.4983	0.000285329
48.6233	0.000281395
48.7484	0.000280889
48.8734	0.000282647
48.9984	0.000277223
49.1234	0.000277223
49.2484	0.000274332
49.3734	0.000273826
49.4984	0.000269445
49.6234	0.000269594
49.7484	0.000269504
49.8728	0.000268402
49.9973	0.000265898
50.1223	0.000265451
50.2477	0.000268163
50.3721	0.000268819
50.4984	0.000267895
50.622	0.000267329
50.7474	0.000266673
50.8735	0.000265988
50.9985	0.00026566
51.1235	0.000263335
51.2485	0.000267239
51.3735	0.000264706
51.4985	0.0002656
51.6235	0.000265362
51.7485	0.000258746
51.8735	0.000257673
51.9985	0.000255318
52.1235	0.000251414
52.2485	0.00025058
52.3735	0.000250252
52.4985	0.000250014
52.6222	0.000246646
52.7471	0.000247093
52.8735	0.000248315
52.9985	0.000247659
53.1236	0.000247719
53.2486	0.000250759
53.3736	0.000243546
53.4986	0.000243128
53.6236	0.000243128
53.7486	0.0002428
53.8736	0.000242592
53.9986	0.000241459
54.1236	0.00024456
54.2486	0.000241966
54.3736	0.00024131
54.4986	0.000238718
54.6236	0.000236244
54.7486	0.000238569
54.8736	0.000234396
54.9986	0.000234754
55.1236	0.000233085
55.2486	0.000230999
55.3737	0.000233651
55.4987	0.000231148
55.6237	0.000229479
55.7487	0.000224144
55.8737	0.000225038
55.9987	0.000219167
56.1237	0.000223518
56.2485	0.000220985
56.3737	0.000216157
56.4987	0.000216872
56.6237	0.000216276
56.7487	0.000212819
56.8737	0.000217349
56.9987	0.0002172
57.1237	0.000216366
57.2487	0.000214429
57.3737	0.000212611
57.4987	0.000213356
57.6238	0.000215502
57.7488	0.000218303
57.8738	0.000217975
57.9988	0.000214697
58.1238	0.000211031
58.2487	0.000211895
58.3738	0.000211717
58.4988	0.000208409
58.6238	0.000207574
58.7488	0.000210197
58.8738	0.00020671
58.9988	0.000207485
59.1238	0.000207395
59.2488	0.000204952
59.3738	0.000206531
59.4988	0.000200779
59.6238	0.000201912
59.7489	0.000200898
59.8739	0.000195892
59.9989	0.000192464
60.1239	0.000189275
60.2489	0.00019014
60.3739	0.000190646
60.4989	0.000192464
60.6239	0.000195713
60.7489	0.00019458
60.8739	0.000193597
60.9989	0.000196309
61.1239	0.000194193
61.2489	0.000193597
61.3735	0.000190825
61.4986	0.000189275
61.6239	0.000184298
61.7486	0.0001826
61.874	0.000183494
61.999	0.000183762
62.124	0.00018111
62.249	0.000189544
62.374	0.00018406
62.499	0.000183464
62.624	0.000185073
62.749	0.000185133
62.874	0.000183762
62.999	0.000182212
63.124	0.000180812
63.249	0.00017962
63.374	0.000175298
63.499	0.000173272
63.624	0.000174434
63.749	0.000172497
63.8738	0.000170321
63.9988	0.000172288
64.1241	0.000167788
64.2491	0.000165046
64.3741	0.000168384
64.4991	0.000166119
64.6241	0.000165314
64.7491	0.000164867
64.8741	0.000164838
64.9991	0.000163526
65.1241	0.000161321
65.2491	0.000164093
65.3741	0.000161738
65.4991	0.000156165
65.6241	0.000155122
65.7491	0.000152499
65.8741	0.000153721
65.9991	0.000155509
66.1241	0.00015548
66.2487	0.000153453
66.3742	0.000149936
66.4992	0.000154586
66.6242	0.000151039
66.7492	0.000153602
66.8742	0.000152797
66.9992	0.000152946
67.1242	0.000152589
67.2492	0.000151516
67.3742	0.00015238
67.4992	0.000150771
67.6242	0.00014338
67.7492	0.000144751
67.8742	0.000137688
67.9992	0.000138999
68.1242	0.000134916
68.2491	0.000134022
68.3742	0.00013426
68.4993	0.000133754
68.6243	0.000135572
68.7493	0.000132055
68.8743	0.000131012
68.9993	0.000134856
69.1243	0.000133754
69.2493	0.000135691
69.3743	0.000135989
69.4993	0.000135065
69.6243	0.000129015
69.7493	0.000131817
69.8743	0.000126661
69.9993	0.000127793
70.1243	0.000125499
70.2493	0.000126512
70.3743	0.000125856
70.4993	0.000122786
70.6244	0.000122369
70.7491	0.000121832
70.8741	0.000123114
70.9994	0.00012225
71.1244	0.000124396
71.2494	0.000118107
71.3744	0.000119687
71.4994	0.00011915
71.6244	0.000117302
71.7494	0.000116289
71.8744	0.000116796
71.9994	0.00011611
72.1244	0.000119031
72.2494	0.000113875
72.3744	0.000112564
72.4994	0.000114054
72.6244	0.000109762
72.7494	0.000108064
72.8745	0.000110001
72.9995	0.000109584
73.1245	0.000111193
73.2495	0.000109405
73.3745	0.000111104
73.4995	0.000109166
73.6245	0.000107468
73.7495	0.000104219
73.8742	0.000106723
73.9995	0.000102848
74.1245	9.79E-05
74.2495	0.000100136
74.3745	9.54E-05
74.4995	9.61E-05
74.6245	9.75E-05
74.7495	9.80E-05
74.8745	9.69E-05
74.9995	9.94E-05
75.1246	9.23E-05
75.2496	9.70E-05
75.3746	9.02E-05
75.4996	8.73E-05
75.6246	8.29E-05
75.7496	8.71E-05
75.8746	8.76E-05
75.9996	8.88E-05
76.1246	8.65E-05
76.2496	8.94E-05
76.3746	9.24E-05
76.4996	9.40E-05
76.6246	8.67E-05
76.7496	8.70E-05
76.8746	8.35E-05
76.9996	8.08E-05
77.1246	8.04E-05
77.2496	8.03E-05
77.3747	7.84E-05
77.4997	7.66E-05
77.6247	7.48E-05
77.7497	7.46E-05
77.8747	7.75E-05
77.9997	7.81E-05
78.1247	7.87E-05
78.2497	7.58E-05
78.3747	7.84E-05
78.4997	7.54E-05
78.6247	7.43E-05
78.7497	7.11E-05
78.8747	6.84E-05
78.9997	6.83E-05
79.1247	6.43E-05
79.2497	6.63E-05
79.3747	6.44E-05
79.4998	6.32E-05
79.6248	6.16E-05
79.7498	6.32E-05
79.8748	6.24E-05
79.9998	6.06E-05
80.1248	6.27E-05
80.2498	6.38E-05
80.3748	6.24E-05
80.4998	6.31E-05
80.6248	5.95E-05
80.7498	5.78E-05
80.8748	5.53E-05
80.9998	5.15E-05
81.1248	4.92E-05
81.2498	5.33E-05
81.3748	4.91E-05
81.4998	4.79E-05
81.6248	4.74E-05
81.7499	4.75E-05
81.8749	4.77E-05
81.9999	4.76E-05
82.1245	4.42E-05
82.2495	4.53E-05
82.3749	4.46E-05
82.4999	4.64E-05
82.6249	4.10E-05
82.7499	4.22E-05
82.8749	4.12E-05
82.9999	3.87E-05
83.1249	3.96E-05
83.2499	4.10E-05
83.3749	3.79E-05
83.4999	3.63E-05
83.6249	3.27E-05
83.7499	3.08E-05
83.875	2.66E-05
84	2.22E-05
84.125	1.98E-05
84.25	1.99E-05
84.375	1.77E-05
84.5	1.85E-05
84.625	1.79E-05
84.75	1.59E-05
84.875	1.70E-05
85	1.72E-05
85	1.82E-05
-0.00386047	0.000398548
0.12114	0.000400336
0.246155	0.000400098
0.371155	0.000399234
0.49617	0.000397475
0.62117	0.000397803
0.74617	0.000395866
0.871185	0.000395508
0.996185	0.000396045
1.12119	0.000394525
1.2462	0.000395657
1.3712	0.000393065
1.4962	0.00039375
1.62117	0.000394644
1.74596	0.000394018
1.87097	0.000394823
1.99594	0.000397714
2.1208	0.000396522
2.24564	0.000398161
2.37109	0.00039527
2.49625	0.00039533
2.62126	0.000394734
2.74626	0.000393482
2.87126	0.000391098
2.99628	0.000391902
3.12128	0.000390233
3.24628	0.000391187
3.37129	0.000388237
3.49629	0.000388892
3.62131	0.00039232
3.74631	0.000395359
3.87131	0.000393094
3.99632	0.000391336
4.12132	0.000392826
4.24632	0.000395091
4.37134	0.000394555
4.49634	0.000397386
4.62134	0.000396671
4.74635	0.000396403
4.87135	0.000396581
4.99635	0.000396373
5.12137	0.000395657
5.24637	0.000394763
5.37138	0.000395181
5.49638	0.000395747
5.62138	0.000394853
5.7464	0.000393393
5.8714	0.000396492
5.9964	0.000395508
6.12141	0.000393303
6.24641	0.000396611
6.37143	0.000392916
6.49643	0.0003953
6.62143	0.000398191
6.74644	0.000398191
6.87144	0.000398906
6.99646	0.000400813
7.12147	0.000396403
7.24647	0.000397893
7.37103	0.000396581
7.49529	0.000397684
7.6202	0.00039837
7.7453	0.000397565
7.87009	0.000399413
7.9951	0.000395181
8.1215	0.000394853
8.24651	0.000396939
8.37151	0.000395359
8.49653	0.000394108
8.62153	0.000394763
8.74653	0.000392945
8.87154	0.000390174
8.99654	0.000392767
9.12155	0.000389995
9.24656	0.000386955
9.37156	0.000390204
9.49657	0.000385435
9.62157	0.00038472
9.74658	0.000387849
9.87159	0.0003863
9.99659	0.000388088
10.1216	0.000388714
10.2466	0.000386389
10.3716	0.000386061
10.4966	0.000391366
10.6216	0.000386121
10.7466	0.000390472
10.8716	0.00038925
10.9966	0.000391604
11.1216	0.000392588
11.2466	0.000390204
11.3717	0.000393661
11.4967	0.00039527
11.6217	0.000390621
11.7467	0.000391664
11.8717	0.000390382
11.9967	0.000392111
12.1217	0.000392767
12.2467	0.00039533
12.3708	0.000391515
12.4967	0.000391157
12.6217	0.000393005
12.7467	0.000391217
12.8717	0.000391753
12.9967	0.000394525
13.1217	0.000396015
13.2467	0.000393065
13.3717	0.000390651
13.4967	0.000389697
13.6217	0.000388892
13.7468	0.000384243
13.8718	0.000385495
13.9968	0.000386806
14.1218	0.00038323
14.2468	0.000384392
14.3718	0.000383409
14.4968	0.000382842
14.6218	0.00038329
14.7468	0.00038475
14.8718	0.000385137
14.9968	0.000384154
15.1202	0.000385555
15.2468	0.000383707
15.3718	0.000383856
15.4968	0.000384571
15.6218	0.000383498
15.7468	0.000383409
15.8719	0.000386031
15.9969	0.000383886
16.1219	0.000384511
16.2469	0.000384303
16.3719	0.000384243
16.4965	0.000385674
16.6218	0.000384958
16.7465	0.000383856
16.8719	0.000387641
16.9969	0.000387939
17.1219	0.00038624
17.2469	0.000383975
17.3719	0.000384452
17.4969	0.000382485
17.6219	0.000385912
17.7469	0.000382097
17.872	0.000380101
17.997	0.000377478
18.122	0.00038171
18.247	0.00038025
18.372	0.000373544
18.4969	0.000375452
18.6219	0.000373723
18.7469	0.000375243
18.8719	0.000378193
18.9966	0.000376882
19.1216	0.000375034
19.2466	0.000380935
19.372	0.000379445
19.497	0.000379207
19.622	0.000380607
19.747	0.000380935
19.872	0.00038174
19.997	0.000383141
20.1221	0.000383081
20.2471	0.000378998
20.3721	0.000377418
20.4971	0.000382723
20.6221	0.00038317
20.7471	0.000381323
20.8721	0.000379654
20.9971	0.000382157
21.1221	0.000378789
21.2471	0.000382872
21.3721	0.000378998
21.4971	0.000379266
21.6221	0.000376971
21.7471	0.000379326
21.8715	0.000376584
21.9971	0.000374855
22.1221	0.000376942
22.2471	0.000374289
22.3722	0.000375183
22.4972	0.000371845
22.6222	0.000371518
22.7472	0.000371369
22.8722	0.000373604
22.9972	0.000373067
23.1222	0.000372859
23.2472	0.000375243
23.3722	0.000377418
23.4972	0.000375153
23.6222	0.000375988
23.7472	0.000373127
23.8722	0.000379654
23.9972	0.000377925
24.1222	0.000375779
24.2472	0.000374855
24.3722	0.000373276
24.4973	0.000374766
24.6223	0.00037417
24.7473	0.000375601
24.8723	0.000373514
24.9973	0.000371994
25.1223	0.000371339
25.2473	0.000369193
25.3723	0.000368835
25.4973	0.000370534
25.6223	0.000367524
25.7473	0.000369253
25.8723	0.000366332
25.997	0.000366034
26.122	0.000365289
26.2473	0.000363769
26.3723	0.000366958
26.4973	0.000364842
26.6224	0.000366541
26.7474	0.000367137
26.8724	0.000370057
26.9974	0.00036815
27.1224	0.000368865
27.2474	0.000369908
27.3724	0.000370594
27.4974	0.000372859
27.6224	0.00036964
27.7474	0.000368478
27.8724	0.000369342
27.9974	0.000370057
28.1224	0.000368895
28.2474	0.000367375
28.3724	0.000363501
28.4974	0.000365974
28.6224	0.000365378
28.7474	0.000363024
28.8724	0.000364425
28.9975	0.000362815
29.1225	0.000360521
29.2475	0.000363531
29.3725	0.000362607
29.4975	0.0003621
29.6225	0.00036362
29.7475	0.000364901
29.8725	0.000362756
29.9975	0.000364752
30.1225	0.000364752
30.2474	0.000366123
30.3725	0.000367792
30.4974	0.000367673
30.6223	0.00036666
30.7475	0.00036657
30.8725	0.000366928
30.9975	0.000367464
31.1226	0.000367584
31.2476	0.000367137
31.3726	0.000364961
31.4976	0.000366958
31.6226	0.000364037
31.7476	0.000365617
31.8726	0.000366362
31.9976	0.000363709
32.1226	0.000363411
32.2476	0.000357868
32.3726	0.000363501
32.4976	0.000363054
32.6226	0.000361236
32.7476	0.000361266
32.8726	0.0003621
32.9976	0.000362875
33.1226	0.000363799
33.2477	0.000362666
33.3727	0.000365647
33.4977	0.0003652
33.6227	0.000363292
33.7477	0.000365229
33.8727	0.000366988
33.9977	0.000363054
34.1227	0.000364782
34.2477	0.000365349
34.3727	0.000363352
34.4977	0.000363978
34.6227	0.000365408
34.7477	0.000364782
34.8727	0.000362964
34.9977	0.000365617
35.1227	0.000359328
35.2477	0.000359477
35.3727	0.000358732
35.4977	0.00035766
35.6228	0.000357093
35.7478	0.000353934
35.8728	0.000358732
35.9978	0.000354888
36.1228	0.000360044
36.2478	0.000354202
36.3728	0.000353994
36.4978	0.00035602
36.6228	0.000351014
36.7478	0.000352027
36.8728	0.000352027
36.9978	0.00035453
37.1228	0.00035459
37.2478	0.00035307
37.3728	0.000352474
37.4978	0.000354024
37.6228	0.00035462
37.7479	0.00035456
37.8729	0.000351788
37.9979	0.000354322
38.1229	0.000352474
38.2475	0.000357689
38.3724	0.000352981
38.4979	0.000353636
38.6229	0.000353547
38.7479	0.000359269
38.8729	0.000357123
38.9979	0.000356736
39.1229	0.000358017
39.2479	0.000357153
39.3729	0.000353636
39.4979	0.000357958
39.6229	0.000353726
39.7479	0.00035152
39.8729	0.000350656
39.998	0.000351163
40.123	0.000350954
40.248	0.000346692
40.373	0.00034854
40.498	0.000348391
40.623	0.000345321
40.748	0.000342729
40.873	0.000342311
40.998	0.000338854
41.123	0.000340285
41.248	0.000335606
41.373	0.00033641
41.498	0.000334175
41.623	0.000332208
41.748	0.00033498
41.873	0.00033352
41.998	0.000332745
42.123	0.000333579
42.2481	0.000337215
42.3731	0.000338407
42.4981	0.000341119
42.6231	0.000337334
42.7481	0.000337185
42.8731	0.000339301
42.9981	0.000338824
43.1231	0.000331642
43.2481	0.000328751
43.3731	0.000330003
43.4973	0.000329824
43.6222	0.000323595
43.7481	0.000322552
43.8725	0.000324668
43.9978	0.000320138
44.1228	0.00031993
44.2477	0.000319453
44.3727	0.00031832
44.4982	0.000317277
44.6232	0.000317039
44.7482	0.000320913
44.8732	0.000321241
44.9982	0.000319781
45.1232	0.000319542
45.2482	0.000317069
45.3732	0.000315728
45.4982	0.000315698
45.6232	0.000312807
45.7482	0.000309171
45.8732	0.000311317
45.9982	0.000304582
46.1232	0.000302138
46.2482	0.000299754
46.3733	0.000295432
46.4969	0.000296982
46.6217	0.000295909
46.7467	0.000295909
46.8733	0.000293346
46.9983	0.000295194
47.1233	0.000291409
47.2483	0.000294479
47.3733	0.000290127
47.4983	0.000295432
47.6233	0.000290425
47.7483	0.00029424
47.8733	0.000291528
47.9983	0.000292541
48.1233	0.000292273
48.2483	0.000288459
48.3733	0.000288727
48.4983	0.000285985
48.6233	0.00028521
48.7484	0.000283422
48.8734	0.000278773
48.9968	0.00028074
49.1234	0.000275912
49.2484	0.000275733
49.3734	0.000273855
49.4984	0.000270845
49.6234	0.000267716
49.7484	0.000270577
49.8734	0.000272127
49.9984	0.000269296
50.1234	0.000266762
50.2484	0.000268253
50.3734	0.000264408
50.4984	0.000266137
50.6234	0.000269117
50.7484	0.000265988
50.8735	0.000263931
50.9985	0.000265243
51.1234	0.00026715
51.2485	0.000264885
51.3735	0.000262143
51.4985	0.000264289
51.6235	0.000260206
51.7485	0.000261338
51.8735	0.000257971
51.9985	0.000257345
52.1235	0.000253411
52.2485	0.000254543
52.3735	0.000247719
52.4985	0.000249209
52.6235	0.000250103
52.7485	0.000247778
52.8735	0.000248613
52.9985	0.000245603
53.1236	0.000247898
53.2486	0.000246497
53.3736	0.000244888
53.4986	0.000246586
53.6236	0.000244202
53.7486	0.000244202
53.8736	0.000242383
53.9972	0.000242979
54.1236	0.000243724
54.2486	0.000240476
54.3736	0.00023833
54.4986	0.000238479
54.6236	0.000235201
54.7486	0.000233472
54.8736	0.000233711
54.9986	0.00023678
55.1236	0.0002338
55.2486	0.00023383
55.3737	0.000229151
55.4987	0.000229777
55.6237	0.000229777
55.7487	0.000224681
55.8737	0.000223399
55.9987	0.000223101
56.1237	0.000218899
56.2487	0.000218214
56.3737	0.000215949
56.4987	0.000212313
56.6237	0.000212223
56.7487	0.000213326
56.8737	0.00020969
56.9987	0.000213624
57.1237	0.000212849
57.2487	0.000210137
57.3737	0.000209213
57.4987	0.000210644
57.6238	0.000214011
57.7488	0.000213117
57.8738	0.000208975
57.9987	0.000215233
58.1236	0.000210882
58.2488	0.000209928
58.3738	0.00020966
58.4988	0.000208975
58.6238	0.000207604
58.7488	0.000207365
58.8738	0.000206084
58.9988	0.000204564
59.1238	0.000206918
59.2488	0.000199885
59.3738	0.000198455
59.4988	0.000200451
59.6238	0.000197113
59.7489	0.000195325
59.8739	0.000196219
59.9989	0.000194491
60.1239	0.000190766
60.2489	0.000191213
60.3739	0.000192584
60.4989	0.000191034
60.6239	0.000188381
60.7489	0.000193001
60.8735	0.000192882
60.9986	0.000193865
61.1236	0.000190736
61.2481	0.00019318
61.3739	0.000187994
61.4989	0.000184149
61.6239	0.000185371
61.7489	0.000182719
61.874	0.000180841
61.999	0.000180901
62.124	0.000181944
62.249	0.000181765
62.374	0.000181795
62.499	0.000181318
62.624	0.000181259
62.749	0.000184298
62.874	0.000179471
62.999	0.000177682
63.124	0.000174404
63.249	0.000175894
63.374	0.000172735
63.499	0.00016749
63.6234	0.000171007
63.749	0.000167371
63.874	0.000167162
63.999	0.000165463
64.1241	0.000163556
64.2491	0.000162632
64.3741	0.000164897
64.4991	0.000163765
64.6241	0.00015989
64.7491	0.000157387
64.8741	0.000159384
64.9991	0.000161857
65.1241	0.00015843
65.2491	0.000155837
65.3741	0.000156821
65.4991	0.000156105
65.6237	0.000155986
65.7491	0.000150205
65.8741	0.000151218
65.9991	0.000151397
66.1241	0.000151218
66.2492	0.000154079
66.3742	0.000148208
66.4992	0.000148536
66.6242	0.000149489
66.7492	0.000149966
66.8742	0.000151516
66.9992	0.000151367
67.1242	0.000154437
67.2492	0.000153066
67.3742	0.00015089
67.4992	0.000147552
67.6242	0.000143499
67.7491	0.000141592
67.8742	0.000137539
67.9992	0.000138463
68.1242	0.000133217
68.2492	0.000132204
68.3742	0.000131817
68.4993	0.000128538
68.6243	0.000131638
68.7493	0.000132621
68.8743	0.000133337
68.9993	0.000134141
69.1243	0.000133635
69.2493	0.000132621
69.3743	0.000136049
69.4993	0.000136019
69.6243	0.000129611
69.7493	0.000126333
69.8743	0.0001252
69.9993	0.000127704
70.1243	0.000125349
70.2493	0.000124664
70.3743	0.000125409
70.4993	0.000122667
70.6244	0.000118673
70.7494	0.00012383
70.8744	0.000124098
70.9994	0.000123681
71.1234	0.000120849
71.2494	0.000120998
71.3744	0.000115991
71.4994	0.000116587
71.6244	0.000115723
71.7494	0.000115872
71.8744	0.000115246
71.9994	0.000112296
72.1244	0.000115395
72.2494	0.000112415
72.3744	0.000112236
72.4994	0.000109375
72.6244	0.000106663
72.7494	0.000108958
72.8745	0.000109166
72.9995	0.000106127
73.1245	0.000107855
73.2495	0.000108392
73.3745	0.000111104
73.4995	0.000110507
73.6245	0.000110865
73.7495	0.000106365
73.8745	0.000109524
73.9995	0.000106425
74.1245	9.96E-05
74.2495	9.98E-05
74.3745	0.000100375
74.4995	9.77E-05
74.6245	9.59E-05
74.7495	0.000100434
74.8744	9.64E-05
74.9993	9.78E-05
75.1246	9.80E-05
75.2496	9.30E-05
75.3746	9.21E-05
75.4996	8.85E-05
75.6246	8.63E-05
75.7496	8.63E-05
75.8746	8.77E-05
75.9996	8.68E-05
76.1246	8.98E-05
76.2496	9.14E-05
76.3746	9.22E-05
76.4996	9.15E-05
76.6246	8.75E-05
76.7496	8.71E-05
76.8746	8.09E-05
76.9996	7.81E-05
77.1246	7.57E-05
77.2496	7.91E-05
77.3747	7.80E-05
77.4997	7.65E-05
77.6247	7.82E-05
77.7497	7.69E-05
77.8747	7.92E-05
77.9997	7.72E-05
78.1247	7.90E-05
78.2497	7.44E-05
78.3747	7.44E-05
78.4997	7.34E-05
78.6247	7.33E-05
78.7497	7.22E-05
78.8747	6.86E-05
78.9997	6.39E-05
79.1247	6.34E-05
79.2497	6.22E-05
79.3747	6.52E-05
79.4998	6.27E-05
79.6248	6.22E-05
79.749	6.17E-05
79.8738	6.32E-05
79.9998	5.79E-05
80.1248	6.11E-05
80.2498	6.25E-05
80.3748	6.19E-05
80.4998	5.92E-05
80.6248	6.32E-05
80.7498	5.94E-05
80.8748	5.54E-05
80.9998	5.13E-05
81.1248	5.17E-05
81.2498	5.14E-05
81.3748	5.19E-05
81.4998	4.76E-05
81.6248	4.91E-05
81.7499	4.90E-05
81.8749	4.54E-05
81.9999	4.49E-05
82.1249	4.51E-05
82.2499	4.60E-05
82.3749	4.56E-05
82.4999	4.57E-05
82.6249	4.07E-05
82.7499	4.55E-05
82.8749	4.44E-05
82.9999	3.86E-05
83.1249	3.75E-05
83.2499	3.99E-05
83.3749	3.79E-05
83.4999	3.75E-05
83.6249	3.27E-05
83.7499	3.25E-05
83.875	2.78E-05
84	2.60E-05
84.125	2.07E-05
84.25	1.65E-05
84.375	1.62E-05
84.5	1.48E-05
84.625	1.48E-05
84.75	1.79E-05
84.875	1.78E-05
85	1.66E-05
85	1.73E-05
-0.00386047	0.000399085
0.12114	0.000401707
0.246155	0.000398519
0.371155	0.000400247
0.49614	0.000398846
0.62114	0.000397148
0.74617	0.000396939
0.871109	0.00039685
0.996185	0.000393482
1.12119	0.000396909
1.2462	0.0003953
1.3712	0.000395628
1.4962	0.000394167
1.62122	0.000395926
1.74622	0.000394078
1.87122	0.000395449
1.99623	0.000394406
2.12123	0.000395091
2.24625	0.000396939
2.37125	0.000394883
2.49625	0.000393214
2.62126	0.000392171
2.74626	0.000393393
2.87126	0.000393542
2.99628	0.000393273
3.12128	0.000389488
3.24628	0.000389161
3.37129	0.000389548
3.49629	0.000388237
3.62131	0.000389518
3.74631	0.000392975
3.87131	0.000391366
3.99632	0.000392737
4.12105	0.000393512
4.24632	0.000395091
4.37134	0.00039378
4.49634	0.000394704
4.62134	0.00039381
4.74635	0.000392528
4.87135	0.000397803
4.99635	0.00039521
5.12137	0.00039229
5.24637	0.000393899
5.37138	0.000392349
5.49638	0.000390353
5.62138	0.00039223
5.7464	0.000396879
5.8714	0.000394614
5.9964	0.000395926
6.12141	0.000394287
6.24641	0.000395866
6.37143	0.000393691
6.49643	0.000395807
6.62143	0.000395002
6.74585	0.000394555
6.87144	0.000397654
6.99646	0.00039828
7.12147	0.00039828
7.24647	0.000395866
7.37147	0.000397684
7.49648	0.000395657
7.62148	0.000396432
7.74648	0.000396671
7.8715	0.000396254
7.9965	0.000396432
8.1215	0.00039533
8.24651	0.000395032
8.37151	0.000396999
8.49653	0.000394108
8.62153	0.00039524
8.74653	0.000393035
8.87154	0.000390293
8.99654	0.000391157
9.12155	0.000388952
9.24656	0.000389548
9.37156	0.000388416
9.49657	0.000389399
9.62157	0.000388535
9.74658	0.000381948
9.87159	0.000388058
9.99659	0.000386002
10.1216	0.000386717
10.2466	0.000388028
10.3716	0.000388714
10.4966	0.000387104
10.6216	0.000389667
10.7466	0.000391575
10.8716	0.000388952
10.9966	0.000393214
11.1216	0.000391724
11.2466	0.000389906
11.3717	0.00038922
11.4967	0.000395687
11.6217	0.000393631
11.7467	0.000390591
11.8717	0.000392141
11.9967	0.000393482
12.1209	0.000391455
12.2452	0.000391306
12.371	0.000390472
12.4967	0.000391128
12.6217	0.000393571
12.7467	0.000394257
12.8717	0.000390889
12.9967	0.000393989
13.1217	0.000390919
13.2467	0.000393035
13.3717	0.000391366
13.4967	0.000387849
13.6217	0.000386508
13.7468	0.000388922
13.8718	0.000387045
13.9968	0.000387194
14.1218	0.00038621
14.2468	0.000385435
14.3718	0.000384273
14.4968	0.00038475
14.6218	0.00038472
14.7468	0.000384005
14.8718	0.000383826
14.9968	0.000382068
15.1218	0.00038317
15.2468	0.000382515
15.3718	0.000383558
15.4968	0.000384422
15.6218	0.000384392
15.7468	0.000385107
15.8719	0.000385405
15.9969	0.000384333
16.1219	0.000383558
16.2469	0.000386508
16.3719	0.000383588
16.4969	0.000387164
16.6219	0.000385167
16.7469	0.000390055
16.8719	0.000388118
16.9969	0.000388475
17.1219	0.00038779
17.2469	0.000386538
17.3719	0.000384303
17.4969	0.00038317
17.6219	0.000382306
17.7469	0.000384154
17.872	0.000379594
17.997	0.000381859
18.122	0.000377776
18.247	0.000377955
18.372	0.000377389
18.497	0.000373544
18.622	0.000375511
18.747	0.000376882
18.872	0.000376673
18.997	0.000379207
19.1219	0.000374915
19.247	0.000376822
19.372	0.000379356
19.497	0.000380071
19.622	0.00038019
19.747	0.000379356
19.872	0.000377985
19.997	0.000379981
20.1221	0.00037864
20.2471	0.000382723
20.3721	0.000385405
20.4971	0.00038171
20.6221	0.000380488
20.7471	0.000383409
20.8721	0.000380905
20.9971	0.000381948
21.1221	0.000380011
21.2471	0.000380399
21.3721	0.000380607
21.4971	0.000376137
21.6221	0.000378432
21.7471	0.000377657
21.8721	0.000378253
21.9971	0.000376882
22.1221	0.00037563
22.2471	0.000376465
22.3722	0.000375303
22.4972	0.000373425
22.6222	0.000373574
22.7472	0.000373097
22.8722	0.000372024
22.9972	0.000372948
23.1222	0.000373872
23.2472	0.000374021
23.3722	0.000374051
23.4972	0.00037423
23.6222	0.000379594
23.7472	0.00037569
23.8722	0.000371875
23.997	0.000377001
24.1222	0.000376167
24.2472	0.000372859
24.3722	0.000374855
24.4973	0.000372382
24.6223	0.000372799
24.7473	0.000374021
24.8723	0.000374259
24.9973	0.000371518
25.1223	0.0003711
25.2473	0.000372352
25.3723	0.000369372
25.4973	0.000369789
25.6223	0.000363769
25.7473	0.000367375
25.8723	0.000366541
25.9973	0.000364723
26.1223	0.000369253
26.2473	0.000366243
26.3723	0.000366302
26.4973	0.000366898
26.6224	0.000367226
26.7474	0.000364246
26.8724	0.000368716
26.9974	0.000370951
27.1224	0.000368716
27.2474	0.000369849
27.3724	0.00037262
27.4974	0.000370475
27.6224	0.000372322
27.7474	0.000371816
27.8724	0.000367435
27.9974	0.000370415
28.1224	0.00036964
28.2474	0.000365349
28.3724	0.000366958
28.4974	0.000362935
28.6224	0.000364693
28.7474	0.000363292
28.8724	0.000363978
28.9975	0.000362905
29.122	0.000364603
29.2474	0.000359537
29.372	0.000364931
29.4968	0.000360193
29.6225	0.0003621
29.7475	0.000365229
29.8725	0.000367047
29.9975	0.000363888
30.1225	0.000363382
30.2475	0.000368269
30.3725	0.000366302
30.4975	0.00036368
30.6225	0.000366958
30.7475	0.000366541
30.8725	0.000366094
30.9975	0.000362219
31.1226	0.000367882
31.2476	0.000366779
31.3726	0.000364305
31.4976	0.000366839
31.6226	0.000367077
31.7476	0.000365736
31.8726	0.000363829
31.9976	0.000362338
32.1226	0.0003621
32.2476	0.000360699
32.3726	0.000360223
32.4966	0.000364276
32.6226	0.000361772
32.7476	0.000362428
32.8726	0.000362219
32.9976	0.0003621
33.1226	0.000364544
33.2477	0.000365378
33.3727	0.000362517
33.4977	0.000363799
33.6227	0.000364246
33.7477	0.000366541
33.8726	0.000365259
33.9974	0.000365289
34.1227	0.000362637
34.2477	0.000362279
34.3727	0.000361832
34.4977	0.000367584
34.6227	0.000364991
34.7477	0.000363888
34.8727	0.000364335
34.9977	0.000364425
35.1227	0.000363262
35.2477	0.000357391
35.3727	0.000358107
35.4977	0.000357034
35.6228	0.000354292
35.7478	0.000357004
35.8728	0.000355514
35.9978	0.000354679
36.1228	0.000356467
36.2478	0.000355722
36.3728	0.000353338
36.4975	0.000353457
36.6228	0.000355335
36.7478	0.000354441
36.8728	0.000352802
36.9978	0.000353219
37.1228	0.000352385
37.2478	0.000354143
37.3728	0.000353606
37.4978	0.000353606
37.6228	0.000353785
37.7479	0.000351937
37.8729	0.000356736
37.9979	0.000351908
38.1229	0.000354769
38.2479	0.000354828
38.3729	0.000358434
38.4977	0.000356318
38.6228	0.000355156
38.7479	0.000356676
38.8729	0.000357958
38.9979	0.000358971
39.1229	0.000358107
39.2479	0.000359477
39.3729	0.000355097
39.4979	0.000356169
39.6229	0.000353219
39.7479	0.000352623
39.8729	0.000352295
39.998	0.000349702
40.123	0.000350656
40.248	0.000349255
40.373	0.000347467
40.498	0.000345947
40.623	0.000345023
40.748	0.000344606
40.873	0.000342967
40.998	0.000342758
41.1227	0.000340613
41.248	0.000338228
41.373	0.000331791
41.498	0.000333251
41.623	0.000333907
41.748	0.000335487
41.873	0.000332864
41.998	0.000334235
42.123	0.000335099
42.2481	0.000333937
42.3731	0.000339361
42.4981	0.000338795
42.6231	0.000340285
42.7481	0.000341179
42.8731	0.000339778
42.9981	0.000337841
43.1231	0.000336053
43.2481	0.000332268
43.3731	0.000328096
43.4981	0.000329437
43.6229	0.000327619
43.748	0.00032449
43.8727	0.000324519
43.9978	0.000318946
44.1226	0.000317784
44.2479	0.000318112
44.3725	0.000319423
44.4982	0.000319662
44.6232	0.000318708
44.7482	0.000319632
44.8732	0.000319006
44.9982	0.000319215
45.1232	0.000318618
45.2482	0.000317873
45.3732	0.000316473
45.4982	0.000315281
45.6232	0.000311794
45.7482	0.000312539
45.8732	0.000308366
45.9982	0.000305327
46.1232	0.000301423
46.2482	0.000296595
46.3733	0.00029731
46.4983	0.00029579
46.6233	0.000294508
46.7483	0.000294419
46.8733	0.000292333
46.9983	0.000293078
47.1233	0.000293346
47.2483	0.000292065
47.3733	0.000294389
47.4983	0.000292243
47.6233	0.000293227
47.7483	0.000294151
47.8733	0.000290247
47.9983	0.000288727
48.1233	0.00029272
48.2483	0.000292392
48.3733	0.000288012
48.4983	0.000283929
48.6233	0.000285508
48.7484	0.00028521
48.8728	0.000282677
48.998	0.000278475
49.123	0.000279667
49.2475	0.000277372
49.3725	0.000272127
49.4971	0.000272991
49.622	0.000269921
49.7484	0.000267448
49.8734	0.000269534
49.9984	0.000269862
50.1234	0.000266435
50.2484	0.000269325
50.3734	0.000266792
50.4984	0.000270816
50.6234	0.000265332
50.7484	0.000265272
50.8735	0.000263335
50.9985	0.00026414
51.1235	0.000262411
51.2485	0.000264587
51.3735	0.000264676
51.4985	0.000264855
51.6235	0.000262709
51.7485	0.000256749
51.8735	0.000258656
51.9985	0.000253441
52.1222	0.000254037
52.2474	0.000252785
52.3717	0.000251742
52.4985	0.000248494
52.6235	0.000251146
52.7485	0.000251712
52.8735	0.000247302
52.9985	0.000248881
53.1236	0.000247153
53.2486	0.000249447
53.3736	0.000248106
53.4986	0.000245424
53.6236	0.000247629
53.7486	0.000245692
53.8736	0.000243575
53.9986	0.000240178
54.1236	0.000237734
54.2486	0.000243396
54.3736	0.000239433
54.4986	0.000236661
54.6236	0.000237227
54.7486	0.000235678
54.8736	0.0002383
54.9986	0.000237496
55.1236	0.000234724
55.2486	0.000234962
55.3737	0.000237078
55.4987	0.00023231
55.6237	0.000232608
55.7487	0.000231327
55.8737	0.00022924
55.9987	0.000225128
56.1237	0.000221402
56.2487	0.000224561
56.3737	0.000215591
56.4987	0.000216485
56.6237	0.000216813
56.7487	0.00021571
56.8737	0.00021428
56.9987	0.000213833
57.1237	0.000212611
57.2487	0.000212313
57.3737	0.000212432
57.4987	0.000209452
57.6238	0.000213654
57.7488	0.000213713
57.8738	0.000214041
57.9988	0.00021121
58.1238	0.00021276
58.2488	0.000208885
58.3738	0.000212432
58.4988	0.000209601
58.6238	0.000210882
58.7488	0.000211419
58.8738	0.000209511
58.9988	0.000207276
59.1238	0.00020367
59.2488	0.000203283
59.3738	0.000201077
59.4988	0.000199408
59.6238	0.000199527
59.7489	0.000200869
59.8739	0.000196488
59.9989	0.000193776
60.1239	0.000191332
60.2489	0.000193239
60.3739	0.000186206
60.4989	0.00019613
60.6239	0.000193507
60.7489	0.00019461
60.8739	0.000193269
60.9978	0.000192703
61.1238	0.000191242
61.2487	0.000190378
61.3736	0.000191749
61.4987	0.000187726
61.6239	0.000186563
61.7489	0.000183285
61.874	0.000186146
61.999	0.000180335
62.124	0.000184597
62.249	0.000184179
62.374	0.000184835
62.499	0.000183017
62.624	0.000182689
62.749	0.000184239
62.874	0.000180573
62.999	0.000178845
63.124	0.000179649
63.249	0.000180931
63.374	0.000173063
63.499	0.00017506
63.624	0.000171185
63.749	0.000171096
63.874	0.000170738
63.999	0.000170172
64.1241	0.000168414
64.2491	0.000168503
64.3741	0.000165642
64.4991	0.000167281
64.6241	0.000166059
64.7491	0.000160755
64.8741	0.000161828
64.9991	0.000162215
65.124	0.000163169
65.2491	0.000160665
65.3741	0.000157864
65.4991	0.000158192
65.6241	0.000157
65.7491	0.000156374
65.8741	0.000154407
65.9991	0.000153274
66.1241	0.000152887
66.2492	0.00015393
66.3742	0.000154139
66.4992	0.000155301
66.6242	0.000153423
66.7492	0.000155211
66.8742	0.000154884
66.9992	0.000157357
67.1242	0.000154764
67.2492	0.000155986
67.3742	0.000154019
67.4992	0.000151814
67.6242	0.000149519
67.7492	0.000145824
67.8742	0.000142098
67.9992	0.000139744
68.1242	0.000139446
68.2492	0.000137747
68.3742	0.000136674
68.4993	0.000136347
68.6243	0.000137568
68.7493	0.000136466
68.8743	0.000142516
68.9993	0.000135512
69.1243	0.000136883
69.2493	0.000138403
69.3743	0.000135601
69.4993	0.000131727
69.6243	0.00013584
69.7493	0.00012973
69.8743	0.00012985
69.9993	0.000131459
70.1243	0.000130177
70.2493	0.00013128
70.3743	0.000125439
70.4993	0.00012675
70.6244	0.000125916
70.7494	0.000124455
70.8744	0.000124098
70.9994	0.000123412
71.1244	0.000122131
71.2494	0.000119806
71.3744	0.000118822
71.4994	0.000120581
71.6244	0.000121475
71.7494	0.000120789
71.8744	0.000118107
71.9994	0.000120789
72.1244	0.00012067
72.2494	0.000118405
72.3744	0.000114531
72.4994	0.000113428
72.6237	0.000111819
72.7488	0.000109375
72.8745	0.00010711
72.9995	0.000111044
73.1245	0.000111223
73.2495	0.000110597
73.3745	0.000109405
73.4995	0.00011015
73.6245	0.000109435
73.7495	0.000110895
73.8745	0.000107825
73.9995	0.000103623
74.1245	0.000100583
74.2495	9.78E-05
74.3745	9.79E-05
74.4995	9.67E-05
74.6245	9.41E-05
74.7495	9.76E-05
74.873	9.59E-05
74.9995	9.71E-05
75.1246	9.29E-05
75.2496	9.12E-05
75.3746	9.36E-05
75.4996	9.04E-05
75.6246	8.67E-05
75.7496	8.62E-05
75.8746	8.45E-05
75.9996	8.88E-05
76.1246	9.06E-05
76.2496	8.98E-05
76.3746	8.96E-05
76.4996	9.06E-05
76.6246	8.69E-05
76.7496	8.53E-05
76.8746	8.06E-05
76.9996	8.07E-05
77.1246	7.82E-05
77.2496	7.68E-05
77.3747	7.78E-05
77.4997	7.44E-05
77.6247	7.36E-05
77.7497	7.74E-05
77.8747	7.42E-05
77.9997	7.69E-05
78.1247	7.64E-05
78.2497	7.58E-05
78.3747	7.44E-05
78.4997	7.60E-05
78.6247	7.41E-05
78.7486	6.96E-05
78.8747	6.77E-05
78.9997	6.65E-05
79.1247	6.52E-05
79.2497	6.51E-05
79.3747	6.12E-05
79.4998	6.05E-05
79.6248	6.26E-05
79.7496	6.07E-05
79.8748	6.06E-05
79.9998	6.00E-05
80.1248	6.03E-05
80.2498	6.03E-05
80.3748	6.18E-05
80.4998	5.92E-05
80.6248	5.96E-05
80.7498	5.58E-05
80.8748	5.64E-05
80.9998	5.34E-05
81.1248	4.94E-05
81.2498	5.10E-05
81.3748	5.19E-05
81.4998	4.81E-05
81.6248	4.87E-05
81.7499	4.91E-05
81.8749	4.55E-05
81.9999	4.61E-05
82.1249	4.75E-05
82.2499	4.77E-05
82.3749	4.39E-05
82.4991	4.48E-05
82.6249	4.34E-05
82.7499	4.24E-05
82.8749	4.12E-05
82.9999	3.82E-05
83.1249	3.39E-05
83.2499	3.69E-05
83.3749	3.44E-05
83.4999	4.04E-05
83.6249	3.65E-05
83.7499	3.21E-05
83.875	2.95E-05
84	2.48E-05
84.125	2.28E-05
84.25	2.16E-05
84.375	1.66E-05
84.5	1.66E-05
84.625	1.55E-05
84.75	1.51E-05
84.875	1.67E-05
85	1.93E-05
85	1.77E-05
-0.0052948	0.000398548
0.120422	0.000399651
0.245361	0.000402482
0.371155	0.000400009
0.49617	0.000397297
0.62117	0.000395061
0.74617	0.000400128
0.871185	0.000396522
0.996185	0.000395836
1.12119	0.000393989
1.2462	0.000393184
1.3712	0.000394704
1.4962	0.000395777
1.62122	0.000396164
1.74622	0.000394823
1.87122	0.000395836
1.99623	0.000395628
2.12123	0.000399055
2.24625	0.000395985
2.37125	0.000398101
2.49625	0.000394853
2.62126	0.000397684
2.74626	0.000397088
2.87126	0.000393035
2.99628	0.000391455
3.12128	0.000390084
3.24628	0.000389459
3.37129	0.000391902
3.49629	0.000386776
3.62131	0.000388654
3.74631	0.000390651
3.87131	0.000389548
3.99632	0.000392171
4.12132	0.000393035
4.24632	0.000394436
4.37134	0.000394048
4.49634	0.000392647
4.62134	0.000394108
4.74635	0.000394972
4.87135	0.000392409
4.99635	0.000391038
5.12137	0.000395449
5.24637	0.000392409
5.37138	0.00039071
5.49638	0.000395896
5.62138	0.000391277
5.7464	0.000394525
5.8714	0.000395419
5.9964	0.000396164
6.12141	0.000396492
6.24641	0.00039831
6.37143	0.000399353
6.49643	0.000394108
6.62143	0.000393482
6.74644	0.000394793
6.87144	0.000393959
6.99646	0.000397505
7.12147	0.000397624
7.24647	0.000395389
7.37147	0.000396224
7.49648	0.00039521
7.62148	0.00039521
7.74648	0.000395807
7.8715	0.000397326
7.9965	0.000397297
8.1215	0.000399889
8.24651	0.000393482
8.37151	0.0003953
8.49653	0.000395181
8.62153	0.000394734
8.74653	0.000391396
8.87154	0.000389459
8.99654	0.000388952
9.12155	0.000389459
9.24656	0.000389995
9.37156	0.000389399
9.49657	0.000388833
9.62157	0.00038779
9.74658	0.0003908
9.87159	0.000385853
9.99659	0.000387641
10.1216	0.000387194
10.2466	0.000386836
10.3716	0.000389786
10.4966	0.000388743
10.6215	0.00038776
10.7466	0.000390353
10.8716	0.000393482
10.9966	0.000390442
11.1216	0.000392796
11.2466	0.000389608
11.3717	0.000391128
11.4967	0.000392439
11.6217	0.000391008
11.7467	0.000390919
11.8717	0.000392677
11.9967	0.000388803
12.1217	0.000390621
12.2467	0.000392796
12.3717	0.000391783
12.4967	0.000394138
12.6217	0.000394138
12.7467	0.000391455
12.8717	0.000391068
12.9967	0.000391366
13.1217	0.000391724
13.2467	0.000390114
13.3717	0.000391306
13.4967	0.00038919
13.6217	0.000387581
13.7468	0.000387968
13.8718	0.000386151
13.9968	0.000384631
14.1218	0.0003832
14.2468	0.000382932
14.3718	0.000382902
14.4968	0.000381323
14.6218	0.000386389
14.7468	0.00038469
14.8718	0.000380935
14.9968	0.000380727
15.1218	0.000382068
15.2468	0.000384809
15.3718	0.000380071
15.4968	0.000382515
15.6218	0.000383468
15.7468	0.000381174
15.8719	0.000383647
15.9969	0.000380786
16.1219	0.000388088
16.2469	0.000384303
16.3719	0.000386061
16.4969	0.000383617
16.6219	0.000388684
16.7469	0.0003877
16.8719	0.000385465
16.9969	0.000387968
17.1219	0.000388743
17.2469	0.000385435
17.3719	0.000385584
17.4969	0.000382336
17.6219	0.000384631
17.7469	0.000379564
17.872	0.000383021
17.997	0.000380727
18.122	0.000378462
18.247	0.000379773
18.372	0.000379028
18.497	0.000378968
18.622	0.000374289
18.747	0.000375273
18.872	0.000374259
18.997	0.000377836
19.122	0.000377776
19.247	0.000375958
19.372	0.000376107
19.4968	0.000379177
19.622	0.00038022
19.7468	0.000380756
19.872	0.000381323
19.997	0.000381293
20.1221	0.000384541
20.2471	0.000381174
20.3721	0.000382425
20.4971	0.000381233
20.6221	0.000382217
20.7471	0.000382008
20.8721	0.000384541
20.9971	0.000381114
21.1221	0.000379177
21.2471	0.000380279
21.3721	0.000379028
21.4971	0.000378998
21.6221	0.000380429
21.7471	0.000379564
21.872	0.00037569
21.9971	0.000375273
22.1221	0.000376316
22.2471	0.000375779
22.3722	0.000375541
22.4972	0.000371875
22.6222	0.000371905
22.7472	0.000372471
22.8722	0.000373425
22.9972	0.000373425
23.1222	0.000371786
23.2472	0.000375422
23.3722	0.000376435
23.4972	0.000375362
23.6222	0.000374021
23.7472	0.00037569
23.8722	0.000375809
23.9972	0.00037417
24.1222	0.000378938
24.2472	0.000374945
24.3722	0.000372471
24.4973	0.000373574
24.6223	0.000375899
24.7473	0.000370892
24.8723	0.000373604
24.9973	0.000371339
25.1223	0.000373902
25.2473	0.000371339
25.3723	0.000367405
25.4973	0.000367882
25.6223	0.000366034
25.7473	0.000365617
25.8723	0.000363948
25.9973	0.000365796
26.1223	0.000366302
26.2473	0.000366123
26.3723	0.00036514
26.4973	0.000367196
26.6224	0.000370743
26.7474	0.000365825
26.8724	0.000366958
26.9974	0.000368865
27.1224	0.000368567
27.2474	0.000370027
27.3724	0.000373246
27.4974	0.000369789
27.6224	0.000371935
27.7474	0.000370177
27.8724	0.00037113
27.9974	0.000367435
28.1224	0.000365468
28.2474	0.000365289
28.3724	0.000362994
28.4974	0.000365885
28.6224	0.000364752
28.7474	0.000364454
28.8724	0.000362875
28.9975	0.000363858
29.1225	0.000362994
29.2475	0.000361295
29.3725	0.000363292
29.4975	0.000361832
29.6225	0.00036663
29.7475	0.000361832
29.8725	0.000364067
29.9975	0.000364127
30.1225	0.000367554
30.2475	0.000365974
30.3709	0.000368537
30.4975	0.000367405
30.6225	0.000367017
30.7475	0.000364156
30.8725	0.000364365
30.9975	0.000367912
31.1226	0.000364991
31.2476	0.000365438
31.3726	0.000367435
31.4976	0.00036514
31.6226	0.000365051
31.7476	0.000365438
31.8726	0.000361772
31.9976	0.000366272
32.1226	0.000361742
32.2476	0.000361981
32.3726	0.000360938
32.4976	0.000362637
32.6226	0.0003621
32.7476	0.000359716
32.8726	0.000360819
32.9976	0.000361683
33.1226	0.000360699
33.2477	0.000365587
33.3727	0.000361295
33.4977	0.000363024
33.6227	0.000363113
33.7477	0.000364812
33.8727	0.000364961
33.9977	0.000361951
34.1227	0.000360461
34.2477	0.000364961
34.3727	0.000366809
34.4977	0.000361832
34.6227	0.000364991
34.7474	0.000364842
34.8717	0.000364633
34.9977	0.000364335
35.1218	0.000361504
35.2477	0.000359328
35.3727	0.000358136
35.4977	0.000358136
35.6228	0.000355901
35.7478	0.000354709
35.8728	0.000355484
35.9978	0.00035757
36.1228	0.000355514
36.2478	0.000355395
36.3728	0.000351371
36.4976	0.000355216
36.6225	0.00035462
36.7477	0.000353189
36.8726	0.000352176
36.9978	0.000353159
37.1228	0.000355603
37.2478	0.000353159
37.3728	0.000353666
37.4978	0.000357123
37.6228	0.0003545
37.7479	0.000353934
37.8729	0.000354769
37.9979	0.000353517
38.1229	0.0003531
38.2479	0.000353577
38.3729	0.00035614
38.4979	0.000354471
38.6229	0.000357063
38.7479	0.000356974
38.8729	0.000358911
38.9979	0.000355007
39.1229	0.000360223
39.2479	0.000357004
39.3729	0.0003531
39.4979	0.00035453
39.6229	0.000351133
39.7479	0.000352861
39.8729	0.000351937
39.998	0.000349881
40.123	0.000347408
40.248	0.000350447
40.373	0.000344338
40.498	0.000347706
40.623	0.000343235
40.748	0.000342073
40.873	0.000341447
40.998	0.00033954
41.123	0.000337573
41.248	0.000335427
41.373	0.000334682
41.498	0.000332089
41.623	0.00033352
41.748	0.000331046
41.873	0.000332834
41.998	0.00033039
42.123	0.000335725
42.2481	0.000337066
42.3731	0.000338079
42.4981	0.00033951
42.6231	0.000341805
42.7481	0.000340672
42.8731	0.000341328
42.9981	0.000338646
43.1231	0.000336351
43.2481	0.000332894
43.3731	0.000331493
43.4981	0.000328245
43.6231	0.000328543
43.7481	0.000323566
43.8731	0.000321897
43.9981	0.000322552
44.1231	0.000317218
44.2482	0.000320019
44.3732	0.000318887
44.4982	0.000319274
44.6232	0.000316801
44.7482	0.000318469
44.8732	0.000320258
44.9982	0.000317188
45.1232	0.000319662
45.2482	0.000315698
45.3732	0.000316741
45.4982	0.000315579
45.6232	0.000311496
45.7482	0.000311168
45.8732	0.000307323
45.9982	0.000305893
46.1232	0.000299485
46.2482	0.00029886
46.3733	0.000298591
46.4983	0.000294151
46.6233	0.000293406
46.7482	0.0002912
46.8733	0.000292124
46.9983	0.000293734
47.1233	0.000291945
47.2483	0.000292631
47.3733	0.000292988
47.4983	0.000291886
47.6233	0.000292273
47.7483	0.000290753
47.8733	0.000292184
47.9983	0.000290455
48.1233	0.000287922
48.2483	0.00028825
48.3733	0.000287296
48.4983	0.000283809
48.6233	0.000284525
48.7484	0.000280442
48.8734	0.00028375
48.9984	0.000280382
49.1234	0.000278594
49.2484	0.000275912
49.3734	0.000274392
49.4984	0.000269445
49.6234	0.000268044
49.7484	0.000268133
49.8734	0.000269921
49.9984	0.000264587
50.1234	0.000267001
50.2484	0.000265034
50.3734	0.000267478
50.4984	0.000267537
50.6234	0.000265779
50.7484	0.000267776
50.8735	0.000264974
50.9985	0.000266822
51.1235	0.000268461
51.2485	0.000264021
51.3735	0.000264974
51.4985	0.000260295
51.6235	0.000262978
51.7483	0.000258507
51.8735	0.000256689
51.9985	0.000257106
52.1235	0.000249805
52.2485	0.000252517
52.3735	0.000249626
52.4985	0.000250729
52.6235	0.000249477
52.7485	0.000250222
52.8735	0.000248166
52.9985	0.000246914
53.1236	0.000247242
53.2486	0.000243516
53.3736	0.000243903
53.4986	0.000242383
53.6236	0.000243277
53.7486	0.000243337
53.8736	0.000245186
53.9986	0.000240774
54.1236	0.000241281
54.2486	0.000240595
54.3736	0.000240327
54.4986	0.000237525
54.6236	0.000234873
54.7486	0.000235499
54.8736	0.000234307
54.9986	0.000232042
55.1236	0.000233353
55.2486	0.000234992
55.3737	0.000232578
55.4987	0.000230969
55.6237	0.000228257
55.7487	0.000227899
55.8737	0.00022483
55.9987	0.000221313
56.1237	0.000217767
56.2487	0.000217975
56.3737	0.000213743
56.4987	0.000215293
56.6237	0.00021571
56.7487	0.000212611
56.8737	0.000211329
56.9987	0.000213713
57.1237	0.000214041
57.2487	0.000212462
57.3737	0.000212253
57.4987	0.0002127
57.6238	0.000212074
57.7488	0.000212283
57.8738	0.000209958
57.9988	0.000210584
58.1238	0.000213356
58.2488	0.000210793
58.3738	0.000210912
58.4988	0.000206889
58.6238	0.00020522
58.7488	0.00020671
58.8738	0.000203879
58.9988	0.000204802
59.1238	0.000203461
59.2488	0.000201465
59.3738	0.000197769
59.4988	0.000200451
59.6238	0.000197084
59.7489	0.000195981
59.8739	0.00019008
59.9989	0.000190378
60.1239	0.000191362
60.2489	0.000189454
60.3739	0.000190617
60.4989	0.00019017
60.6239	0.000191332
60.7489	0.000193239
60.8739	0.000193716
60.9989	0.000192792
61.1239	0.000191928
61.2489	0.000191302
61.3739	0.000191481
61.4989	0.000184805
61.6239	0.000182212
61.7489	0.000181855
61.874	0.00017956
61.999	0.000182063
62.124	0.000183017
62.2489	0.000178249
62.374	0.000184805
62.499	0.000178666
62.624	0.000176431
62.749	0.000179202
62.874	0.000180156
62.999	0.000179322
63.124	0.000175686
63.249	0.000173689
63.374	0.000173361
63.499	0.000169159
63.624	0.000171633
63.749	0.000168801
63.874	0.00016904
63.999	0.000166357
64.1241	0.000165404
64.2491	0.000163467
64.3741	0.000163288
64.4991	0.000160367
64.6241	0.000161857
64.7491	0.000161082
64.8741	0.00015849
64.9991	0.000158132
65.1241	0.000158549
65.2491	0.000157
65.3741	0.000155152
65.4991	0.000158221
65.6241	0.000153334
65.7491	0.000157029
65.8741	0.000153423
65.9991	0.000154407
66.1241	0.000151754
66.2492	0.000153185
66.3742	0.000152589
66.4992	0.000152797
66.6242	0.0001494
66.7492	0.000150234
66.8742	0.000153483
66.9992	0.000150771
67.1242	0.000153334
67.249	0.000154675
67.3742	0.000152142
67.4991	0.000150234
67.6239	0.000147105
67.749	0.000144483
67.8741	0.000137896
67.9992	0.000136525
68.1242	0.000136734
68.2492	0.000134618
68.3742	0.000133515
68.4993	0.000131399
68.6243	0.000132413
68.7493	0.000135542
68.8743	0.000131399
68.9993	0.000137151
69.1243	0.000136049
69.2493	0.000135929
69.3743	0.000136138
69.4993	0.000134588
69.6243	0.000129492
69.7493	0.00013274
69.8743	0.000128717
69.9993	0.000127972
70.1243	0.000129373
70.2493	0.000125588
70.3743	0.000124277
70.4993	0.00012523
70.6244	0.000127287
70.7493	0.000120074
70.8742	0.000120223
70.9989	0.000120819
71.1244	0.000120461
71.2494	0.000118047
71.3744	0.000120223
71.4994	0.000117839
71.6244	0.00012061
71.7494	0.000117183
71.8744	0.000117958
71.9994	0.000115574
72.1244	0.00011307
72.2494	0.000114412
72.3744	0.000114114
72.4994	0.000111819
72.6244	0.000108749
72.7494	0.000105232
72.8745	0.000105978
72.9995	0.0001041
73.1245	0.000106842
73.2495	0.000107646
73.3745	0.000109345
73.4995	0.000109047
73.6245	0.000108034
73.7479	0.000106752
73.8735	0.000103683
73.9995	0.000103891
74.1245	0.000104636
74.2495	9.97E-05
74.3745	9.89E-05
74.4995	9.46E-05
74.6245	9.50E-05
74.7495	9.55E-05
74.8745	9.85E-05
74.9995	9.81E-05
75.1246	9.50E-05
75.2496	9.29E-05
75.3746	9.21E-05
75.4996	9.13E-05
75.6246	8.65E-05
75.7496	8.38E-05
75.8746	8.54E-05
75.9996	8.78E-05
76.1246	8.85E-05
76.2496	8.85E-05
76.3746	8.91E-05
76.4996	8.62E-05
76.6246	8.82E-05
76.7496	8.50E-05
76.8746	8.15E-05
76.9996	8.05E-05
77.1246	7.84E-05
77.2496	7.93E-05
77.3747	7.78E-05
77.4997	8.13E-05
77.6247	7.68E-05
77.7497	7.47E-05
77.8747	7.52E-05
77.9997	7.42E-05
78.1247	7.40E-05
78.2497	7.41E-05
78.3747	7.32E-05
78.4997	7.14E-05
78.6247	7.10E-05
78.7497	6.83E-05
78.8747	6.65E-05
78.9997	6.39E-05
79.1247	6.06E-05
79.2497	6.26E-05
79.3747	5.70E-05
79.4998	6.03E-05
79.6248	6.30E-05
79.7498	6.05E-05
79.8748	6.15E-05
79.9998	6.19E-05
80.1248	5.95E-05
80.2498	5.88E-05
80.3748	6.06E-05
80.4998	5.55E-05
80.6248	5.86E-05
80.7498	5.62E-05
80.8748	5.45E-05
80.9998	5.19E-05
81.1248	5.21E-05
81.2498	5.03E-05
81.3748	4.59E-05
81.4998	4.49E-05
81.6248	4.63E-05
81.7499	4.99E-05
81.8749	4.52E-05
81.9999	4.71E-05
82.1249	4.69E-05
82.2499	4.56E-05
82.3749	4.50E-05
82.4999	4.49E-05
82.6249	4.26E-05
82.7499	4.06E-05
82.8749	3.88E-05
82.9999	3.88E-05
83.1249	3.66E-05
83.2499	3.85E-05
83.3749	3.63E-05
83.4999	3.44E-05
83.6249	3.71E-05
83.7499	3.32E-05
83.875	2.75E-05
84	2.71E-05
84.125	2.16E-05
84.25	1.98E-05
84.375	1.77E-05
84.5	1.87E-05
84.625	1.86E-05
84.75	1.77E-05
84.875	1.75E-05
85	1.61E-05
85	1.98E-05
