Photodiode Viewing Angle (Degrees) - Plot 0	Lock-in Signal Amplitude (V) - Plot 0
85	2.06E-05
-0.00386047	0.000386657
0.12114	0.000385465
0.246155	0.000385733
0.371155	0.000386717
0.49617	0.000385107
0.62117	0.000385793
0.74617	0.000386151
0.871185	0.000384005
0.996185	0.000383468
1.12119	0.000382097
1.2462	0.000377478
1.3712	0.000378342
1.4962	0.000379594
1.62122	0.000378015
1.74622	0.000381382
1.87122	0.000379326
1.99623	0.000377061
2.12123	0.000380607
2.24625	0.000378938
2.37125	0.000379445
2.49625	0.000378938
2.62067	0.000379773
2.74474	0.000376644
2.86961	0.000381114
2.99461	0.000381233
3.11923	0.000382008
3.24628	0.00038165
3.37129	0.000381948
3.49629	0.000381323
3.62131	0.000383051
3.74631	0.000379803
3.87131	0.000384005
3.99632	0.000382425
4.12132	0.000381293
4.24632	0.000380399
4.37134	0.000377359
4.49634	0.000379773
4.62134	0.00038165
4.74635	0.00038022
4.87135	0.000377866
4.99635	0.0003787
5.12137	0.000381025
5.24637	0.000376793
5.37138	0.000375124
5.49638	0.00037715
5.62138	0.000378313
5.7464	0.000375869
5.8714	0.000376882
5.9964	0.000380041
6.12141	0.000379296
6.24641	0.000379058
6.37143	0.000380071
6.49643	0.000380101
6.62143	0.000379981
6.74644	0.000382902
6.87144	0.000380399
6.99646	0.000385078
7.12147	0.000379415
7.24647	0.000383617
7.37069	0.000379803
7.49486	0.000386061
7.61976	0.000379981
7.74494	0.000384809
7.86958	0.000383766
7.9965	0.000382515
8.1215	0.000384988
8.24651	0.000384958
8.37151	0.000385853
8.49653	0.000380727
8.62153	0.000380667
8.74653	0.000378432
8.87154	0.000380101
8.99654	0.000381084
9.12155	0.000380816
9.24576	0.000379624
9.37063	0.000381531
9.49596	0.00037724
9.62074	0.000376733
9.74537	0.00037417
9.87083	0.000375541
9.99527	0.000372233
10.1216	0.000374885
10.2466	0.000372918
10.3716	0.000373544
10.4966	0.000372471
10.6216	0.000373336
10.7466	0.000374021
10.8716	0.000375601
10.9966	0.000373306
11.1216	0.000374528
11.2466	0.000377359
11.3717	0.000379415
11.4967	0.000378313
11.6217	0.000379505
11.7466	0.000381293
11.8717	0.000379683
11.9967	0.000378551
12.1217	0.000379683
12.2467	0.000377061
12.3717	0.000378402
12.4967	0.000380756
12.6217	0.000378581
12.7467	0.000380578
12.8717	0.000379356
12.9967	0.000380041
13.1217	0.000380697
13.2467	0.000378789
13.3717	0.000377925
13.4967	0.000377061
13.6217	0.000377985
13.7468	0.000379236
13.8718	0.000375779
13.9968	0.000374796
14.1218	0.000369521
14.2468	0.000374081
14.3718	0.000368776
14.4968	0.000366898
14.6218	0.000369253
14.7468	0.000370862
14.8718	0.000367673
14.9968	0.000368239
15.1218	0.000367882
15.2468	0.000367345
15.3718	0.000371577
15.4968	0.000369819
15.6218	0.000372173
15.7468	0.000367643
15.8719	0.000367435
15.9969	0.00036812
16.1219	0.000371398
16.2469	0.000370326
16.3719	0.000371041
16.4969	0.000374498
16.6219	0.000371577
16.7469	0.000373425
16.8719	0.000375541
16.9969	0.000374289
17.1219	0.00037411
17.2469	0.000375332
17.3719	0.00037715
17.4969	0.000377657
17.6219	0.000376673
17.7469	0.000376554
17.872	0.0003742
17.997	0.0003742
18.122	0.000373723
18.247	0.000373008
18.372	0.00037113
18.4969	0.000367524
18.6219	0.000367554
18.747	0.000365706
18.8718	0.000365498
18.9969	0.000364991
19.1217	0.000364991
19.2469	0.000364425
19.3717	0.000361385
19.497	0.000360819
19.622	0.000365468
19.747	0.000362577
19.872	0.000364633
19.997	0.00036666
20.1221	0.000367852
20.2471	0.000367882
20.3721	0.000369819
20.4971	0.000367017
20.6221	0.000367405
20.7471	0.000369431
20.8721	0.000370087
20.9971	0.000369163
21.1221	0.000369372
21.2471	0.000367137
21.3721	0.000373187
21.4971	0.000369133
21.6221	0.000367792
21.7471	0.000367971
21.8721	0.000366213
21.9971	0.000362964
22.1221	0.0003666
22.2471	0.000364186
22.3722	0.000364246
22.4967	0.000364186
22.6222	0.000359239
22.7472	0.000359656
22.8722	0.000360372
22.9972	0.000361504
23.1222	0.00036362
23.2472	0.000357689
23.3722	0.000361593
23.4972	0.000360729
23.6222	0.000360074
23.7472	0.000359775
23.8722	0.000360491
23.9972	0.00036061
24.1222	0.00035757
24.2472	0.000360491
24.3722	0.00035915
24.4973	0.000358911
24.6223	0.000359179
24.7473	0.000360312
24.8723	0.000363441
24.9973	0.000358345
25.1223	0.00035605
25.2473	0.000356736
25.3723	0.000354977
25.4973	0.000358405
25.6223	0.000358703
25.7473	0.000357451
25.8723	0.000356467
25.9973	0.000358345
26.1223	0.000357809
26.2473	0.000357242
26.3723	0.000356467
26.4973	0.000358822
26.6224	0.000355037
26.7474	0.000356348
26.8724	0.000356378
26.9974	0.000357779
27.1224	0.000356855
27.2474	0.000361891
27.3724	0.000358554
27.4974	0.000359656
27.6224	0.000357779
27.7474	0.000355544
27.872	0.000355395
27.9965	0.00035602
28.1216	0.000352981
28.2474	0.000351908
28.3724	0.000354471
28.4974	0.000353428
28.6224	0.000349315
28.7474	0.000351252
28.8724	0.000350954
28.9975	0.000350328
29.1225	0.000350269
29.2475	0.000346603
29.3725	0.000347884
29.4975	0.000344845
29.6225	0.000347706
29.7475	0.000349643
29.8725	0.000348957
29.9975	0.000349911
30.1225	0.000349941
30.2475	0.000353517
30.3725	0.000352325
30.4968	0.000354679
30.6225	0.000353189
30.7475	0.00035453
30.8725	0.000353785
30.9975	0.00035304
31.1226	0.000353904
31.2476	0.000349673
31.3726	0.000351252
31.4976	0.000347169
31.6226	0.000351967
31.7476	0.000350358
31.8726	0.000347557
31.9976	0.000347974
32.1226	0.00034696
32.2476	0.000346007
32.3726	0.000346484
32.4976	0.000342997
32.6226	0.00034249
32.7476	0.000346364
32.8726	0.000345917
32.9976	0.000344696
33.1226	0.00034705
33.2477	0.000346811
33.3711	0.000347139
33.4967	0.00035009
33.6227	0.00034848
33.7477	0.000343712
33.8727	0.000346335
33.9977	0.000343861
34.1227	0.000342013
34.2477	0.000340255
34.3727	0.000344934
34.4977	0.000342639
34.6227	0.00033951
34.7477	0.000343563
34.8727	0.000340136
34.9977	0.000339063
35.1227	0.00034103
35.2477	0.000341775
35.3727	0.000341566
35.4977	0.000338139
35.6228	0.000338824
35.7478	0.000337781
35.8728	0.00033644
35.9978	0.000335606
36.1228	0.000334295
36.2478	0.000333043
36.3728	0.000335695
36.4978	0.00033501
36.6228	0.000331344
36.7478	0.000334056
36.8728	0.000330152
36.9978	0.000331076
37.1228	0.000332268
37.2478	0.000330808
37.3728	0.000330122
37.4978	0.000329556
37.6228	0.000328364
37.7479	0.000330122
37.8729	0.000326784
37.9979	0.000328096
38.1229	0.000328334
38.2466	0.000327529
38.3712	0.00032744
38.4979	0.000326457
38.6229	0.000323715
38.7479	0.000326129
38.8729	0.000324937
38.9979	0.000327261
39.1229	0.000324639
39.2479	0.000325324
39.3729	0.000322642
39.4979	0.000323417
39.6229	0.000322135
39.7479	0.000320019
39.8729	0.000322135
39.9978	0.000318261
40.1223	0.000319244
40.247	0.00031996
40.3722	0.000316145
40.4968	0.00031537
40.623	0.000314714
40.748	0.000315996
40.873	0.000313165
40.998	0.000309022
41.123	0.000307323
41.248	0.000308963
41.373	0.00030783
41.498	0.000303211
41.623	0.000304194
41.748	0.000303419
41.873	0.000302942
41.998	0.0003064
42.123	0.000303002
42.2481	0.000305356
42.3731	0.000308188
42.4981	0.000305833
42.6231	0.000304105
42.7481	0.000304015
42.872	0.000306996
42.997	0.000305058
43.1213	0.000302615
43.2462	0.000298234
43.371	0.000301899
43.4981	0.000300528
43.6231	0.000295939
43.7481	0.000294806
43.8731	0.000293048
43.9981	0.000289323
44.1231	0.000287535
44.2482	0.000287177
44.3732	0.000288339
44.4982	0.000290873
44.6232	0.000286909
44.7481	0.00028971
44.873	0.000288935
44.998	0.000288935
45.123	0.000287445
45.2482	0.000288727
45.3732	0.000287713
45.4982	0.000287713
45.6232	0.000286253
45.7482	0.000283303
45.8732	0.000283213
45.9982	0.000281544
46.1232	0.000281664
46.2482	0.00027773
46.3733	0.000276061
46.4983	0.000274124
46.6233	0.000272455
46.7483	0.000272514
46.8733	0.000270547
46.9983	0.000269474
47.1233	0.000265511
47.2483	0.000268729
47.3733	0.000268551
47.4983	0.000266047
47.6233	0.000269027
47.7483	0.000265839
47.8733	0.000269623
47.9983	0.000265928
48.1233	0.000266196
48.2483	0.000267269
48.3733	0.000268312
48.4983	0.000268908
48.6233	0.000265451
48.7484	0.000265392
48.8734	0.00026256
48.9984	0.000262918
49.1234	0.000260772
49.2484	0.00025812
49.3734	0.000258448
49.4984	0.000256302
49.6234	0.00025502
49.7484	0.000255676
49.8734	0.000252875
49.9984	0.000252189
50.1234	0.000248941
50.2484	0.000246646
50.3733	0.000244082
50.4984	0.000246974
50.6234	0.0002476
50.7484	0.000247302
50.8735	0.000245066
50.9985	0.00024748
51.1235	0.000244917
51.2485	0.000246765
51.3735	0.000247451
51.4985	0.000246705
51.6235	0.000246437
51.7485	0.000246676
51.8735	0.000244828
51.9985	0.00024748
52.1235	0.000243456
52.2485	0.000242234
52.3735	0.000240416
52.4985	0.000239731
52.6235	0.00023681
52.7485	0.00023687
52.8735	0.000234843
52.9985	0.000232966
53.1236	0.000233353
53.2486	0.000237019
53.3736	0.000231863
53.4986	0.000231327
53.6236	0.000231356
53.7486	0.000232966
53.8736	0.000232638
53.9986	0.000232936
54.1228	0.000229568
54.2476	0.000229985
54.3723	0.00022784
54.4986	0.000229121
54.6236	0.000226707
54.7486	0.00022635
54.8736	0.000225992
54.9986	0.00022635
55.1236	0.000223787
55.2486	0.000221224
55.3737	0.000224442
55.4987	0.000224681
55.6237	0.000224651
55.7487	0.000221462
55.8737	0.000221641
55.9987	0.00022027
56.1237	0.000219882
56.2487	0.000214935
56.3733	0.000211866
56.4983	0.000211627
56.6229	0.000208707
56.7487	0.000206561
56.8737	0.00020072
56.9987	0.000206144
57.1237	0.000200183
57.2487	0.000204713
57.3737	0.000200511
57.4987	0.00020221
57.6238	0.000202269
57.7488	0.000204445
57.8738	0.000207097
57.9988	0.000205756
58.1238	0.000206293
58.2488	0.00020522
58.3738	0.000206114
58.4988	0.000201673
58.6238	0.000200362
58.7488	0.000200034
58.8738	0.000200481
58.9988	0.000197412
59.1238	0.000194521
59.2488	0.000196398
59.3738	0.000196219
59.4988	0.000194193
59.6238	0.000191749
59.7489	0.000194938
59.8739	0.000192584
59.9989	0.000189872
60.1239	0.000187994
60.2489	0.000189037
60.3739	0.000185699
60.4989	0.000179769
60.6239	0.00018263
60.7489	0.00018555
60.8739	0.000184209
60.9989	0.000183851
61.1239	0.000184477
61.2489	0.000185193
61.3739	0.000185669
61.4989	0.00018704
61.6239	0.000184507
61.7489	0.000182928
61.874	0.000180454
61.999	0.000180394
62.124	0.000174762
62.249	0.000175298
62.374	0.000175537
62.499	0.000172944
62.624	0.000172527
62.749	0.000174911
62.874	0.00017351
62.999	0.000176609
63.124	0.000172199
63.249	0.000175179
63.374	0.000171424
63.499	0.000169338
63.624	0.000169517
63.749	0.00016904
63.874	0.000165791
63.999	0.000164271
64.1241	0.000163616
64.2491	0.000163407
64.3741	0.000160278
64.4991	0.000158639
64.6241	0.000158549
64.7491	0.000159384
64.8741	0.000154615
64.9991	0.000151754
65.1241	0.000154228
65.2491	0.000155837
65.3741	0.000150145
65.4991	0.000148744
65.6241	0.000149936
65.7491	0.00015235
65.8741	0.000150354
65.9991	0.00015247
66.1241	0.000152887
66.2492	0.000150383
66.3742	0.000152768
66.4992	0.00015092
66.6242	0.000150652
66.7492	0.000149042
66.8742	0.00014782
66.9992	0.000144185
67.1242	0.000145883
67.2492	0.000145824
67.3742	0.000148089
67.4992	0.000144959
67.6242	0.000145675
67.7492	0.000144185
67.8742	0.000144125
67.9992	0.000136883
68.1242	0.000136466
68.2491	0.000137866
68.3741	0.00013429
68.4993	0.000134141
68.6242	0.000130654
68.7489	0.000130237
68.874	0.000129254
68.9993	0.000130207
69.1243	0.000129432
69.2493	0.000129075
69.3743	0.000132234
69.4993	0.00012678
69.6243	0.000128926
69.7493	0.000128836
69.8743	0.00012979
69.9993	0.000123651
70.1243	0.000126214
70.2493	0.000125499
70.3743	0.000124217
70.4993	0.000125111
70.6244	0.000123263
70.7494	0.000123472
70.8744	0.000121892
70.9994	0.000121087
71.1244	0.00011614
71.2494	0.000118673
71.3744	0.000116557
71.4994	0.000114203
71.6244	0.00011307
71.7494	0.000113518
71.8744	0.000114412
71.9994	0.000111372
72.1244	0.000112594
72.2494	0.000115306
72.3744	0.000113339
72.4994	0.000111133
72.6244	0.000110835
72.7494	0.000109464
72.8745	0.00010705
72.9995	0.000104994
73.1245	0.000107229
73.2495	0.000105769
73.3745	0.000106752
73.4995	0.000105024
73.6245	0.000105352
73.7495	0.000104517
73.8745	0.000104905
73.9995	0.000105948
74.1245	0.000101686
74.2495	0.000100464
74.3745	0.000103117
74.4995	9.77E-05
74.6245	9.84E-05
74.7495	9.13E-05
74.8745	9.34E-05
74.9995	9.39E-05
75.1246	9.44E-05
75.2496	9.31E-05
75.3746	9.07E-05
75.4996	9.39E-05
75.6246	8.80E-05
75.7496	8.95E-05
75.8746	8.21E-05
75.9996	8.30E-05
76.1246	7.79E-05
76.2496	8.16E-05
76.3746	8.36E-05
76.4996	8.66E-05
76.6246	8.45E-05
76.7496	8.76E-05
76.8746	8.20E-05
76.9996	8.34E-05
77.1246	7.94E-05
77.2496	7.52E-05
77.3747	7.01E-05
77.4997	7.53E-05
77.6247	7.25E-05
77.7497	7.57E-05
77.8747	6.99E-05
77.9997	7.32E-05
78.1247	7.24E-05
78.2497	7.17E-05
78.3747	7.26E-05
78.4997	7.11E-05
78.6247	7.24E-05
78.7497	7.15E-05
78.8747	6.83E-05
78.9997	6.89E-05
79.1247	6.58E-05
79.2486	6.72E-05
79.3747	6.23E-05
79.4998	5.93E-05
79.6248	5.96E-05
79.7498	5.93E-05
79.8748	5.85E-05
79.9998	5.64E-05
80.1248	5.73E-05
80.2498	5.70E-05
80.3748	5.80E-05
80.4998	5.84E-05
80.6247	5.68E-05
80.7498	5.80E-05
80.8748	5.57E-05
80.9998	5.56E-05
81.1248	5.47E-05
81.2498	5.08E-05
81.3748	5.02E-05
81.4998	5.10E-05
81.6248	4.75E-05
81.7499	4.87E-05
81.8749	4.90E-05
81.9999	4.82E-05
82.1249	4.81E-05
82.2499	4.44E-05
82.3749	4.54E-05
82.4999	4.31E-05
82.6249	4.25E-05
82.7499	4.40E-05
82.8749	3.99E-05
82.9997	3.98E-05
83.1249	3.69E-05
83.2499	3.61E-05
83.3749	3.70E-05
83.4999	3.74E-05
83.6249	3.50E-05
83.7499	3.56E-05
83.875	3.16E-05
84	2.80E-05
84.125	2.38E-05
84.25	2.26E-05
84.375	1.83E-05
84.5	2.18E-05
84.625	1.76E-05
84.75	2.08E-05
84.875	1.94E-05
85	1.72E-05
85	2.03E-05
-0.00386047	0.000386717
0.12114	0.000384958
0.246155	0.000387223
0.371155	0.00038779
0.49617	0.000385405
0.62117	0.000384869
0.74617	0.000383707
0.871185	0.000381352
0.996185	0.000380518
1.12119	0.000380667
1.2462	0.000378223
1.3712	0.000378193
1.4962	0.000378789
1.62012	0.000379654
1.74483	0.000375303
1.86945	0.000378491
1.99623	0.00037718
2.12123	0.000377269
2.24625	0.000381799
2.37125	0.000382187
2.49625	0.000378879
2.62126	0.000382187
2.74626	0.000380607
2.87126	0.000381948
2.99628	0.000380578
3.12128	0.00038016
3.24628	0.00038317
3.37082	0.000383349
3.4958	0.000384601
3.62057	0.000382693
3.74554	0.000378849
3.87003	0.000385704
3.99535	0.000379952
4.12132	0.00038022
4.24632	0.000381352
4.37134	0.000380518
4.49634	0.000379922
4.62134	0.000380041
4.74635	0.000378193
4.87135	0.000380995
4.99635	0.000376644
5.12137	0.000376167
5.2462	0.000378074
5.37138	0.000377627
5.49638	0.00038025
5.62138	0.000375273
5.7464	0.000380339
5.8714	0.000380905
5.9964	0.000375958
6.12141	0.000380369
6.24641	0.000381889
6.37143	0.000381263
6.49643	0.000379266
6.62143	0.000379981
6.74644	0.000384899
6.87144	0.000380279
6.99646	0.000380905
7.12147	0.000381442
7.24647	0.000382693
7.3713	0.000384035
7.49635	0.00038329
7.62148	0.000382664
7.74648	0.000381948
7.8715	0.000386657
7.9965	0.000382992
8.1215	0.000384571
8.24651	0.000387313
8.37151	0.000386091
8.49653	0.000383707
8.62153	0.000382097
8.74653	0.000383558
8.87154	0.00038168
8.99654	0.000380905
9.12155	0.000381829
9.24656	0.000378164
9.37156	0.000378521
9.49657	0.000378581
9.62157	0.000376256
9.74658	0.000376673
9.87159	0.000375928
9.99659	0.000378253
10.1216	0.000375124
10.2466	0.000374289
10.3716	0.000375601
10.4966	0.000371935
10.6216	0.000374855
10.7466	0.000375809
10.8716	0.000376584
10.9966	0.000374051
11.1207	0.000376852
11.2466	0.000376644
11.3717	0.000374319
11.4967	0.000378283
11.6217	0.000379058
11.7467	0.00037864
11.8717	0.000379207
11.9967	0.000382187
12.1217	0.000377985
12.2467	0.000381084
12.3717	0.000378968
12.4967	0.000379415
12.6217	0.000381203
12.7467	0.000377657
12.8717	0.000377299
12.9967	0.000381382
13.1217	0.000378104
13.2467	0.000376346
13.3717	0.000379236
13.4967	0.00037715
13.6217	0.000378998
13.7468	0.00037876
13.8718	0.000374647
13.9968	0.000373008
14.1198	0.00037122
14.2468	0.000368448
14.3718	0.000372441
14.4968	0.000370594
14.6218	0.000371726
14.7468	0.000370355
14.8718	0.000369491
14.9968	0.000369521
15.1218	0.000369223
15.2468	0.000373157
15.3718	0.000369104
15.4968	0.000371726
15.6218	0.000372918
15.7468	0.000371577
15.8719	0.00036967
15.9969	0.000370653
16.1219	0.000370475
16.2469	0.000367643
16.3719	0.000368478
16.4969	0.000368359
16.6219	0.000373723
16.7469	0.000373783
16.8719	0.000375958
16.9969	0.000373544
17.1219	0.000373723
17.2469	0.000375869
17.3719	0.00037414
17.4969	0.000375273
17.6219	0.000376822
17.7469	0.000375213
17.872	0.000375153
17.997	0.000371458
18.122	0.000372203
18.247	0.000373336
18.372	0.00036967
18.497	0.000370326
18.622	0.000366898
18.747	0.000365885
18.872	0.000364484
18.997	0.000365289
19.122	0.000361593
19.247	0.000362309
19.372	0.000361415
19.497	0.000360401
19.622	0.000365557
19.747	0.000362935
19.872	0.000361832
19.997	0.000365498
20.1221	0.000366153
20.2471	0.000365736
20.3721	0.000369402
20.4971	0.000368925
20.6221	0.000366749
20.7471	0.000370117
20.8721	0.000370177
20.9971	0.000367226
21.1221	0.000369968
21.2471	0.000368567
21.3721	0.000366123
21.4971	0.000369044
21.6221	0.000367256
21.7471	0.000366362
21.8721	0.000366094
21.9971	0.000369104
22.1221	0.000365021
22.2471	0.00036359
22.3722	0.000363411
22.4972	0.000362666
22.6222	0.000361653
22.7472	0.000359418
22.8722	0.000363113
22.9972	0.000361534
23.1222	0.000359925
23.2472	0.000362815
23.3722	0.000361832
23.4969	0.00036061
23.622	0.000363024
23.7466	0.000361415
23.8714	0.000361117
23.9972	0.000362189
24.1222	0.000363709
24.2472	0.00035915
24.3722	0.000355961
24.4973	0.0003576
24.6223	0.000359507
24.7473	0.000355037
24.8723	0.000359537
24.9973	0.000356736
25.1223	0.000358673
25.2473	0.000356497
25.3723	0.000356378
25.4973	0.000357511
25.6223	0.000355782
25.7473	0.000354411
25.8723	0.00035766
25.9973	0.000354888
26.1223	0.000355931
26.2473	0.000354828
26.3723	0.000359895
26.4973	0.000356587
26.6224	0.000356199
26.7474	0.00035611
26.8724	0.000358017
26.9974	0.000358375
27.1224	0.000360223
27.2474	0.000360461
27.3724	0.000360819
27.4974	0.000360789
27.6224	0.000358047
27.7474	0.000358166
27.8724	0.000357302
27.9974	0.00035763
28.1224	0.000353726
28.2474	0.000352027
28.3724	0.000352534
28.4974	0.000352027
28.6224	0.000350537
28.7474	0.000350179
28.8724	0.000348123
28.9975	0.000348391
29.1225	0.00034702
29.2475	0.000348033
29.3725	0.000346692
29.4975	0.000349345
29.6225	0.000349106
29.7475	0.000349345
29.8725	0.000352057
29.9975	0.000352474
30.1225	0.000352116
30.2475	0.000354739
30.3725	0.000353308
30.4975	0.000356587
30.6225	0.000354888
30.7475	0.000354113
30.8725	0.000353726
30.9975	0.00035158
31.1226	0.000351341
31.2476	0.000349434
31.3726	0.000353755
31.4976	0.000350775
31.6226	0.000348391
31.7476	0.000344427
31.8726	0.000347467
31.9976	0.000347676
32.1226	0.000346931
32.2476	0.000347765
32.3726	0.000347586
32.4976	0.000346424
32.6226	0.000345888
32.7476	0.000347288
32.8724	0.000345828
32.9976	0.000345202
33.1226	0.000345351
33.2477	0.00034547
33.3727	0.000346394
33.4977	0.000348302
33.6227	0.000346066
33.7477	0.000346066
33.8727	0.000345858
33.9977	0.000342609
34.1227	0.00034404
34.2477	0.000343384
34.3727	0.00034553
34.4977	0.000343623
34.6227	0.000343444
34.7477	0.000344278
34.8727	0.000345858
34.9977	0.000342371
35.1227	0.000342162
35.2477	0.000343205
35.3727	0.00034255
35.4977	0.000338467
35.6228	0.000341268
35.7478	0.00033647
35.8728	0.000336679
35.9978	0.000339242
36.1228	0.000336053
36.2478	0.000336619
36.3728	0.000334503
36.4978	0.000336172
36.6228	0.000333609
36.7478	0.000336559
36.8728	0.000334235
36.9978	0.000331255
37.1228	0.00033349
37.2478	0.000333341
37.3728	0.000333311
37.4977	0.000328811
37.6227	0.000327768
37.7479	0.000329049
37.8729	0.000332655
37.9979	0.000328423
38.1229	0.000329467
38.2479	0.000328036
38.3729	0.000326695
38.4979	0.000328096
38.6229	0.000325294
38.7479	0.000327053
38.8729	0.000324281
38.9979	0.000323953
39.1229	0.000326278
39.2479	0.000325443
39.3729	0.000325413
39.4979	0.000323834
39.6229	0.000325175
39.7479	0.000324072
39.8729	0.000321569
39.998	0.000319095
40.123	0.000318142
40.248	0.000319304
40.373	0.000318291
40.498	0.000316354
40.623	0.00031534
40.748	0.000314565
40.873	0.000311585
40.998	0.000312151
41.123	0.000311973
41.248	0.00030929
41.373	0.00030777
41.498	0.000303896
41.623	0.000303688
41.748	0.000305148
41.873	0.000304909
41.998	0.000305774
42.123	0.000304611
42.2481	0.000305744
42.3731	0.000306847
42.4981	0.000304611
42.6231	0.000303509
42.7478	0.000307204
42.8731	0.000302793
42.9981	0.000303509
43.1231	0.00030324
43.2481	0.000304343
43.3731	0.000300558
43.4981	0.000299187
43.6231	0.000295671
43.7481	0.000294389
43.8731	0.000293495
43.9981	0.000292839
44.1231	0.000288965
44.2482	0.000291439
44.3732	0.000290396
44.4982	0.00028676
44.6231	0.000292273
44.7482	0.000289323
44.8732	0.000290068
44.9982	0.000289978
45.1232	0.000289829
45.2482	0.00028828
45.3732	0.000287654
45.4982	0.00028974
45.6232	0.000285687
45.7482	0.00028679
45.8732	0.000282707
45.9982	0.000281515
46.1232	0.000278922
46.2482	0.000282468
46.3733	0.00027773
46.4983	0.00027764
46.6233	0.000274511
46.7483	0.000271501
46.8733	0.00027019
46.9983	0.000268729
47.1233	0.000268938
47.2483	0.000267806
47.3733	0.000266762
47.4983	0.000267299
47.6233	0.000263633
47.7483	0.000268282
47.8733	0.000266375
47.9983	0.000267508
48.1233	0.000269713
48.2483	0.000268014
48.3733	0.0002701
48.4983	0.000268491
48.6233	0.000265511
48.7484	0.000265183
48.8734	0.000265362
48.9984	0.00025952
49.1234	0.000261696
49.2484	0.000261398
49.3734	0.000258567
49.4984	0.000255587
49.6234	0.00025353
49.7484	0.000251623
49.8734	0.000255408
49.9984	0.000251533
50.1234	0.00025058
50.2484	0.000245007
50.3734	0.000247242
50.4984	0.000245662
50.6234	0.000246348
50.7484	0.00024456
50.8735	0.000246199
50.9985	0.000247659
51.1235	0.000245782
51.2485	0.000244739
51.3735	0.000245603
51.4985	0.000246705
51.6235	0.000245215
51.7485	0.00024447
51.8735	0.000247182
51.9985	0.000246795
52.1235	0.000245305
52.2485	0.0002428
52.3735	0.000243873
52.4985	0.000238211
52.6235	0.000237525
52.7485	0.000236423
52.8735	0.000236542
52.9985	0.000234962
53.1236	0.00023383
53.2486	0.000232161
53.3736	0.000236512
53.4986	0.000235916
53.6236	0.000232846
53.7486	0.000228942
53.8736	0.000232221
53.9986	0.000229747
54.1236	0.000230134
54.2486	0.000229717
54.3735	0.000229121
54.4986	0.000228406
54.6234	0.000229926
54.7486	0.000227959
54.8736	0.00022483
54.9986	0.000226379
55.1236	0.00022334
55.2486	0.000225694
55.3737	0.000225008
55.4987	0.000222714
55.6237	0.000222743
55.7487	0.000223638
55.8737	0.000226171
55.9987	0.000221104
56.1237	0.000221283
56.2487	0.00021267
56.3737	0.000211895
56.4987	0.000210912
56.6237	0.000207962
56.7486	0.000207187
56.8737	0.000204892
56.9987	0.000203968
57.1237	0.000205279
57.2487	0.000203581
57.3735	0.000204236
57.4981	0.000198544
57.623	0.000203104
57.7488	0.000202448
57.8738	0.000206859
57.9988	0.000203521
58.1238	0.000202895
58.2488	0.000207485
58.3738	0.000205697
58.4988	0.000200302
58.6238	0.00020066
58.7488	0.000199796
58.8738	0.000198127
58.9988	0.000198008
59.1238	0.000199796
59.2488	0.000198097
59.3738	0.000197471
59.4988	0.000193448
59.6238	0.000196249
59.7489	0.00019458
59.8739	0.000196368
59.9989	0.000190319
60.1239	0.00018865
60.2489	0.000186355
60.3739	0.000183613
60.4989	0.000183017
60.6239	0.000185699
60.7489	0.000185491
60.8739	0.000185044
60.9989	0.000183047
61.1239	0.000185789
61.2489	0.000186683
61.3739	0.000182421
61.4989	0.000187487
61.6239	0.000180245
61.7489	0.000179798
61.8738	0.000180961
61.9988	0.00017658
62.1236	0.000177593
62.249	0.000176431
62.3738	0.000171871
62.499	0.000177444
62.624	0.000179083
62.749	0.000175566
62.874	0.000172765
62.999	0.000175119
63.124	0.000174434
63.249	0.000172497
63.374	0.00017196
63.499	0.000172854
63.624	0.000170351
63.749	0.00016451
63.874	0.000165851
63.999	0.000164867
64.1241	0.000163198
64.2489	0.000165195
64.374	0.000161649
64.499	0.00015998
64.6236	0.000159652
64.7491	0.00015995
64.8741	0.000156255
64.9989	0.000154198
65.124	0.00015548
65.249	0.000152559
65.3741	0.000151337
65.4991	0.000154913
65.6241	0.000152291
65.7488	0.000153036
65.8741	0.00015247
65.9991	0.000152142
66.1241	0.000151814
66.2492	0.0001494
66.3742	0.000152291
66.4992	0.000146777
66.6242	0.000148357
66.7492	0.000147105
66.8742	0.000147403
66.9992	0.000144244
67.1242	0.00014633
67.2492	0.000147791
67.3742	0.000146688
67.4992	0.000146956
67.6242	0.000145555
67.7492	0.000140578
67.8742	0.000144185
67.9992	0.000139118
68.1242	0.000137747
68.2492	0.000133337
68.3742	0.000133396
68.4993	0.000133813
68.6243	0.000128807
68.7493	0.000131787
68.8743	0.000130475
68.9993	0.000129313
69.1243	0.000128121
69.2493	0.000129105
69.3743	0.00012824
69.4993	0.00012833
69.6243	0.000128956
69.7493	0.000128985
69.8743	0.000128181
69.9993	0.000128747
70.1243	0.000127912
70.2493	0.00012827
70.3743	0.000123859
70.4984	0.000123502
70.6228	0.000122429
70.7478	0.000118375
70.8744	0.00011912
70.9994	0.000122637
71.1244	0.000121207
71.2494	0.000118703
71.3744	0.000116587
71.4994	0.000115753
71.6244	0.000115365
71.7494	0.000112117
71.8744	0.000115633
71.9994	0.000112981
72.1244	0.000111968
72.2494	0.000112921
72.3744	0.000110329
72.4994	0.000110835
72.6244	0.000108988
72.7494	0.000108541
72.8745	0.000106872
72.9995	0.000107408
73.1234	0.000105888
73.2487	0.000104189
73.3745	0.000104607
73.4995	0.000103564
73.6245	0.000106007
73.7495	0.000106276
73.8745	0.000102073
73.9995	0.000102401
74.1245	0.000103653
74.2495	0.000101358
74.3745	0.000101358
74.4995	9.99E-05
74.6245	9.55E-05
74.7495	9.38E-05
74.8745	9.24E-05
74.9995	9.43E-05
75.1246	9.15E-05
75.2496	9.30E-05
75.3746	9.29E-05
75.4996	9.11E-05
75.6246	9.05E-05
75.7496	8.97E-05
75.8746	8.86E-05
75.9996	8.37E-05
76.1246	8.21E-05
76.2496	8.14E-05
76.3746	8.29E-05
76.4996	8.45E-05
76.6246	8.72E-05
76.7496	8.57E-05
76.8746	8.31E-05
76.9996	8.52E-05
77.1246	8.00E-05
77.2496	7.81E-05
77.3747	7.36E-05
77.4997	7.34E-05
77.6247	7.50E-05
77.7497	7.36E-05
77.8747	7.20E-05
77.9997	7.24E-05
78.1247	7.16E-05
78.2497	7.24E-05
78.3747	7.03E-05
78.4997	6.90E-05
78.6247	7.17E-05
78.7497	7.14E-05
78.8747	6.95E-05
78.9997	7.13E-05
79.1247	6.63E-05
79.2497	6.30E-05
79.3747	6.23E-05
79.4998	6.40E-05
79.6248	6.28E-05
79.7498	6.52E-05
79.8748	6.09E-05
79.9998	5.80E-05
80.1248	5.83E-05
80.2498	5.78E-05
80.3748	5.69E-05
80.4998	5.73E-05
80.6248	5.80E-05
80.7498	5.79E-05
80.8748	5.92E-05
80.9998	5.70E-05
81.1248	5.32E-05
81.2498	5.25E-05
81.3748	4.97E-05
81.4998	5.20E-05
81.6248	4.98E-05
81.7499	4.83E-05
81.8749	4.62E-05
81.9999	4.44E-05
82.1249	4.32E-05
82.2499	4.79E-05
82.3749	4.42E-05
82.4999	4.54E-05
82.6249	4.47E-05
82.7499	4.25E-05
82.8749	3.80E-05
82.9999	3.89E-05
83.1249	3.86E-05
83.2499	3.91E-05
83.3749	3.57E-05
83.4999	3.51E-05
83.6249	3.55E-05
83.7499	3.33E-05
83.875	3.13E-05
84	2.97E-05
84.125	2.82E-05
84.25	2.37E-05
84.375	1.92E-05
84.5	2.21E-05
84.625	1.62E-05
84.75	1.94E-05
84.875	2.11E-05
85	1.81E-05
85	1.78E-05
-0.00386047	0.000388952
0.12114	0.000386389
0.246155	0.000388237
0.371155	0.000384601
0.49617	0.000385018
0.62117	0.000384303
0.74617	0.000381531
0.871185	0.000383558
0.996185	0.000381978
1.12119	0.000380667
1.2462	0.000380756
1.3712	0.000380458
1.4962	0.000382008
1.62122	0.000379892
1.74527	0.000379415
1.87122	0.000381919
1.99525	0.000381859
2.12074	0.000381799
2.24495	0.000380369
2.36978	0.000381203
2.49625	0.000377478
2.6196	0.000381174
2.74626	0.000383558
2.87126	0.000379356
2.99628	0.000382455
3.12128	0.000383647
3.24628	0.000383021
3.37129	0.000380458
3.49629	0.000381054
3.62131	0.000382425
3.74631	0.000383558
3.87131	0.000380786
3.99632	0.000383081
4.12132	0.000380548
4.24632	0.000382157
4.37134	0.000382515
4.49634	0.000377895
4.62134	0.000382634
4.74635	0.000380816
4.87135	0.000380727
4.99635	0.000377687
5.12137	0.000379683
5.24637	0.000377955
5.37138	0.000375779
5.49638	0.00037876
5.62138	0.000376912
5.7464	0.000380101
5.87106	0.000379564
5.99611	0.000382395
6.12141	0.000380607
6.16672	0.000379326
6.37143	0.000381025
6.49643	0.000379177
6.62143	0.000381442
6.74644	0.00038621
6.87144	0.000381978
6.99646	0.000383439
7.12147	0.000381829
7.24647	0.000378998
7.37147	0.000383558
7.49648	0.000382992
7.62148	0.000382932
7.74648	0.000386806
7.8715	0.000388088
7.9965	0.000384422
8.1215	0.000385107
8.24446	0.000387194
8.37151	0.000385405
8.49653	0.000384631
8.62153	0.000382306
8.74653	0.000383826
8.87154	0.000382574
8.99654	0.000381531
9.12155	0.000380786
9.24656	0.000379028
9.37156	0.000381114
9.49657	0.00038016
9.62157	0.000379415
9.74658	0.000376524
9.8715	0.000374647
9.99659	0.000376584
10.1216	0.000377627
10.2466	0.000371577
10.3716	0.000373276
10.4966	0.000375153
10.6216	0.000374885
10.7466	0.000372173
10.8716	0.000377746
10.9966	0.000376942
11.1216	0.000375004
11.2466	0.00037867
11.3717	0.000377299
11.4967	0.000378789
11.6217	0.000380399
11.7467	0.000379564
11.8717	0.000382485
11.9967	0.000378909
12.1211	0.000377627
12.2453	0.000378968
12.3715	0.000379236
12.4967	0.000378551
12.6217	0.000377299
12.7467	0.000376852
12.8717	0.000380339
12.9967	0.000376644
13.1217	0.000382634
13.2467	0.000377627
13.3717	0.000379445
13.4967	0.000380399
13.6217	0.000379445
13.7468	0.000380041
13.8718	0.000375839
13.9968	0.000374349
14.1218	0.000375034
14.2452	0.000370683
14.3718	0.000372024
14.4968	0.000371249
14.6218	0.000371428
14.7468	0.000366988
14.8718	0.000374021
14.9968	0.000369968
15.1218	0.0003697
15.2468	0.000371726
15.3718	0.000373187
15.4968	0.000373455
15.6218	0.000371369
15.7468	0.00036657
15.8719	0.000374915
15.9969	0.000370415
16.1219	0.000371637
16.2469	0.000372382
16.3719	0.000374826
16.4969	0.000371577
16.6219	0.000374557
16.7469	0.000374945
16.8719	0.000372054
16.9969	0.000375452
17.1202	0.000377627
17.2469	0.000371547
17.3719	0.000376256
17.4969	0.000377031
17.6219	0.000375988
17.7469	0.000374289
17.872	0.000372322
17.997	0.00037417
18.122	0.000375899
18.247	0.000370296
18.372	0.000371607
18.497	0.0003697
18.622	0.000366719
18.7467	0.000365587
18.8717	0.00036514
18.9965	0.000365378
19.1215	0.000362488
19.2465	0.000366839
19.3713	0.000361564
19.4962	0.00036514
19.6215	0.000364693
19.7465	0.000362905
19.8707	0.000364484
19.9957	0.000363292
20.1205	0.000366898
20.2471	0.00036669
20.3721	0.000367971
20.4971	0.000369431
20.6221	0.000369342
20.7471	0.000371786
20.8721	0.000369312
20.9971	0.000372292
21.1221	0.00037119
21.2471	0.0003697
21.3721	0.000371458
21.4971	0.000369431
21.6221	0.000369342
21.7471	0.000365676
21.8721	0.000367852
21.9971	0.000367166
22.1214	0.000364663
22.2471	0.000364484
22.3722	0.000363769
22.4972	0.000363918
22.6222	0.000360312
22.7472	0.000362338
22.8722	0.000360878
22.9972	0.000362577
23.1222	0.000362189
23.2472	0.000364544
23.3722	0.000360968
23.4972	0.000363054
23.6222	0.000360938
23.7472	0.00035909
23.8722	0.000364127
23.9972	0.00036064
24.1222	0.000360759
24.2462	0.000363471
24.371	0.000359507
24.4959	0.000361236
24.6209	0.000359746
24.7467	0.000360431
24.8706	0.000356467
24.9973	0.000357391
25.1223	0.000357004
25.2473	0.000359775
25.3723	0.000357362
25.4973	0.000357063
25.6223	0.000355901
25.7473	0.000357272
25.8723	0.000357511
25.9973	0.000358673
26.1223	0.000359656
26.2473	0.000354411
26.3723	0.000355067
26.4973	0.000357362
26.6224	0.000352742
26.7465	0.000354381
26.8718	0.000358285
26.996	0.000359507
27.1214	0.000357838
27.2467	0.000358375
27.3724	0.000358703
27.4974	0.000360312
27.6224	0.000360044
27.7474	0.000358107
27.8724	0.000353517
27.9974	0.000356289
28.1224	0.000354262
28.2474	0.000354053
28.3724	0.000356527
28.4974	0.000353249
28.6224	0.000350567
28.7474	0.000346305
28.8724	0.000347378
28.9975	0.000346692
29.1225	0.000349255
29.2475	0.000347706
29.3725	0.000350954
29.4975	0.000350418
29.6225	0.000349047
29.7475	0.000352593
29.8725	0.000355097
29.9975	0.000353219
30.1225	0.0003545
30.2475	0.000352712
30.3725	0.000354292
30.4975	0.00035456
30.6225	0.000355722
30.7475	0.000354739
30.8725	0.000353875
30.9975	0.000352325
31.1226	0.000355484
31.2475	0.000352861
31.3726	0.000349136
31.4975	0.000348808
31.6226	0.000349196
31.7476	0.000347229
31.8726	0.000347318
31.9976	0.000349822
32.1226	0.000348451
32.2476	0.000348987
32.3726	0.00034705
32.4976	0.000348838
32.6226	0.000349643
32.7476	0.000346066
32.8726	0.000346811
32.9976	0.000345262
33.1226	0.000346186
33.2477	0.000347318
33.3727	0.000344189
33.4977	0.000348868
33.6227	0.000346871
33.7477	0.00034547
33.8727	0.000345739
33.9977	0.000346275
34.1227	0.00034711
34.2477	0.000345679
34.3727	0.000342609
34.4977	0.000342997
34.6227	0.000346007
34.7477	0.00034559
34.8727	0.000342073
34.9977	0.000341268
35.1227	0.000341775
35.2477	0.000343176
35.3727	0.000339093
35.4977	0.000339778
35.6228	0.000340523
35.7478	0.000339808
35.8728	0.000338228
35.9978	0.000338526
36.1228	0.000338854
36.2478	0.000337603
36.3728	0.000333818
36.4978	0.00033346
36.6228	0.000335367
36.7473	0.000335606
36.8728	0.000331255
36.9978	0.000330182
37.1228	0.000329943
37.2478	0.000330539
37.3728	0.000328811
37.4978	0.000326576
37.6228	0.000329496
37.7479	0.000329496
37.8729	0.000329169
37.9979	0.000328662
38.1229	0.00033051
38.2479	0.000323387
38.3729	0.000327529
38.4979	0.000326784
38.6227	0.000327857
38.7475	0.000328364
38.8724	0.000326486
38.9976	0.00032738
39.1222	0.000327768
39.2479	0.000325503
39.3726	0.000323864
39.4971	0.000325622
39.622	0.000324132
39.7468	0.000321986
39.8714	0.000320794
39.9969	0.000320734
40.123	0.00031844
40.248	0.000320019
40.373	0.000317814
40.498	0.000320049
40.623	0.000318648
40.748	0.000312211
40.873	0.000310691
40.998	0.000309171
41.123	0.000311108
41.248	0.000307055
41.373	0.000305565
41.498	0.000306131
41.623	0.00030476
41.748	0.000310691
41.873	0.000305476
41.998	0.000304254
42.123	0.000304582
42.2481	0.000305088
42.3731	0.000304939
42.4981	0.000308754
42.6231	0.000307115
42.7481	0.000305684
42.8731	0.000305297
42.9981	0.000306936
43.1231	0.000306906
43.2481	0.000302972
43.3731	0.000300797
43.4981	0.000302436
43.6231	0.000297965
43.7481	0.000294717
43.8731	0.000295015
43.9981	0.000291588
44.1231	0.000288965
44.2482	0.000288578
44.3732	0.00028521
44.4982	0.000285299
44.6232	0.00028825
44.7482	0.000291498
44.8732	0.00028822
44.9982	0.000288041
45.1232	0.000291141
45.2482	0.000289502
45.3732	0.000290038
45.4982	0.000291767
45.6232	0.000286641
45.7482	0.000287445
45.8732	0.000286104
45.9982	0.000280621
46.1232	0.000279756
46.2482	0.000276418
46.3733	0.000281068
46.4983	0.00027621
46.6233	0.000275912
46.7483	0.000273855
46.8733	0.000273051
46.9983	0.000269415
47.1233	0.000272544
47.2483	0.0002656
47.3733	0.000269802
47.4983	0.000268789
47.6233	0.000268014
47.7483	0.000265272
47.8733	0.000269206
47.9983	0.000266077
48.1233	0.00027159
48.2483	0.000268461
48.3733	0.000267895
48.4983	0.000269445
48.6233	0.000268551
48.7484	0.000261785
48.8734	0.000267925
48.9984	0.000262709
49.1234	0.000260564
49.2484	0.000260564
49.3734	0.000261189
49.4984	0.000254365
49.6234	0.000256391
49.7484	0.000254931
49.8734	0.000257613
49.9984	0.000250341
50.1234	0.000252696
50.2484	0.000249626
50.3734	0.000248732
50.4984	0.00024748
50.6234	0.000249775
50.7484	0.000245364
50.8735	0.000245245
50.9985	0.000243784
51.1235	0.000244082
51.2485	0.000246348
51.3735	0.000248345
51.4985	0.000245543
51.6235	0.000248315
51.7485	0.000243784
51.8735	0.000247719
51.9985	0.000246974
52.1235	0.000245424
52.2485	0.000243963
52.3735	0.000243396
52.4985	0.000240208
52.6235	0.000239075
52.7485	0.000238837
52.8735	0.000234396
52.9985	0.000237913
53.1236	0.000236751
53.2486	0.000234575
53.3736	0.000234337
53.4986	0.000234962
53.6236	0.000232995
53.7486	0.000234635
53.8736	0.000234486
53.9986	0.00023383
54.1236	0.000231476
54.2474	0.000229807
54.3736	0.000228376
54.4986	0.000227124
54.6236	0.000228764
54.7486	0.000228287
54.8736	0.000229151
54.9986	0.000227273
55.1236	0.000226797
55.2486	0.000226499
55.3737	0.000223816
55.4987	0.00022471
55.6237	0.000223995
55.7487	0.000223816
55.8737	0.000222118
55.9987	0.000219912
56.1237	0.000220538
56.2487	0.000216366
56.3737	0.000214876
56.4986	0.00020975
56.6237	0.000214131
56.7487	0.000205935
56.8737	0.000201912
56.9987	0.00020513
57.1237	0.000204147
57.2487	0.000201584
57.3737	0.000203342
57.4987	0.000202567
57.6238	0.000203283
57.7488	0.000205548
57.8738	0.000204445
57.9988	0.000207842
58.1238	0.000208736
58.2488	0.000204266
58.3738	0.000204206
58.4988	0.000200124
58.6238	0.000199855
58.7488	0.000203551
58.8738	0.000199527
58.9988	0.000199349
59.1238	0.000197561
59.2488	0.000193537
59.3738	0.000197143
59.4988	0.000198753
59.6238	0.000198723
59.7489	0.000196845
59.8739	0.000193865
59.9989	0.000193627
60.1239	0.000188709
60.2489	0.000185908
60.3739	0.000186116
60.4989	0.000184477
60.6239	0.000186027
60.7489	0.000184686
60.8739	0.000186802
60.9989	0.000185044
61.1239	0.000188918
61.2489	0.000188471
61.3739	0.000187845
61.4989	0.000187547
61.6239	0.000185491
61.7489	0.000186325
61.874	0.000182659
61.999	0.000180812
62.124	0.000175984
62.249	0.000179262
62.374	0.00017807
62.499	0.000175149
62.624	0.000176013
62.749	0.000177533
62.874	0.000174821
62.999	0.000176699
63.124	0.000173599
63.249	0.000175596
63.374	0.000174434
63.499	0.000169844
63.624	0.000171364
63.749	0.000169517
63.874	0.000164271
63.999	0.000168116
64.1241	0.000164748
64.2491	0.000162722
64.3741	0.000161798
64.4991	0.000160695
64.6241	0.000160397
64.7491	0.000157774
64.8741	0.000159652
64.9991	0.000155122
65.1241	0.000157029
65.2491	0.000153304
65.3741	0.000149609
65.4991	0.000153155
65.6241	0.000155182
65.7491	0.000153364
65.8741	0.000154556
65.9991	0.000153364
66.1241	0.000151218
66.2492	0.000153215
66.3742	0.000154496
66.4992	0.000153185
66.6242	0.000151516
66.7492	0.000147284
66.8742	0.000149579
66.9992	0.000146152
67.1241	0.000147314
67.2492	0.000146897
67.3742	0.000144691
67.4992	0.000145973
67.6242	0.000143499
67.7492	0.000142605
67.8742	0.000142665
67.9992	0.000140072
68.1242	0.000138403
68.2492	0.000135184
68.3742	0.000134201
68.4993	0.000130088
68.6243	0.000131399
68.7493	0.000130863
68.8743	0.000130863
68.9993	0.000130148
69.1243	0.000130088
69.2493	0.000129254
69.3743	0.000130923
69.4993	0.00012979
69.6243	0.000131846
69.7493	0.000130744
69.8743	0.000130565
69.9993	0.000125499
70.1243	0.000128687
70.2493	0.000127972
70.3743	0.000127853
70.4993	0.000124455
70.6244	0.000123204
70.7494	0.000121803
70.8744	0.000121534
70.9994	0.000118644
71.1244	0.000119299
71.2494	0.000117302
71.3744	0.000117869
71.4994	0.000117898
71.6244	0.000111998
71.7494	0.000110329
71.8744	0.000112504
71.9994	0.000113756
72.1244	0.000109584
72.2494	0.000113339
72.3744	0.000110299
72.4994	0.000112325
72.6239	0.000110448
72.7486	0.000110686
72.8745	0.000108272
72.9995	0.000109941
73.1245	0.000107885
73.2495	0.000107348
73.3745	0.000106335
73.4995	0.000102312
73.6245	0.000103683
73.7495	0.000104517
73.8745	0.000106156
73.9995	0.000103802
74.1245	0.000104011
74.2495	0.000100643
74.3745	0.000101388
74.4995	9.76E-05
74.6245	9.61E-05
74.7495	9.24E-05
74.8745	9.50E-05
74.9995	9.35E-05
75.1246	9.40E-05
75.2496	9.25E-05
75.3746	9.10E-05
75.4996	8.89E-05
75.6246	8.91E-05
75.7496	8.81E-05
75.8746	8.57E-05
75.9996	8.26E-05
76.1246	8.39E-05
76.2496	7.97E-05
76.3746	8.62E-05
76.4996	8.45E-05
76.6246	8.75E-05
76.7496	8.79E-05
76.8746	8.48E-05
76.9996	8.47E-05
77.1246	8.07E-05
77.2496	7.66E-05
77.3747	7.55E-05
77.4997	7.34E-05
77.6247	7.16E-05
77.7481	7.30E-05
77.8726	7.38E-05
77.9997	7.35E-05
78.1247	7.28E-05
78.2497	7.24E-05
78.3747	7.19E-05
78.4997	7.16E-05
78.6247	7.13E-05
78.7497	7.11E-05
78.8747	6.90E-05
78.9997	6.62E-05
79.1247	6.94E-05
79.2497	6.50E-05
79.3747	6.21E-05
79.4998	6.26E-05
79.6248	5.99E-05
79.7498	5.70E-05
79.8748	5.82E-05
79.9998	6.12E-05
80.1248	5.73E-05
80.2498	5.99E-05
80.3748	5.72E-05
80.4998	5.98E-05
80.6248	5.86E-05
80.7498	5.82E-05
80.8748	5.48E-05
80.9998	5.62E-05
81.1248	5.42E-05
81.2498	5.15E-05
81.3748	5.03E-05
81.4996	4.71E-05
81.6247	4.90E-05
81.7496	4.80E-05
81.8749	4.70E-05
81.9999	4.57E-05
82.1249	4.42E-05
82.2499	4.57E-05
82.3749	4.45E-05
82.4999	4.36E-05
82.6249	4.57E-05
82.7499	4.34E-05
82.8749	3.83E-05
82.9999	3.81E-05
83.1249	3.54E-05
83.2499	3.96E-05
83.3749	4.12E-05
83.4999	3.62E-05
83.6249	3.53E-05
83.7499	3.16E-05
83.875	3.20E-05
84	2.90E-05
84.125	2.76E-05
84.25	2.40E-05
84.375	2.23E-05
84.5	1.94E-05
84.6234	1.77E-05
84.7485	1.63E-05
84.8728	1.85E-05
84.9983	1.68E-05
85	2.01E-05
-0.00386047	0.000388177
0.12114	0.000387372
0.246155	0.000385286
0.371155	0.000387134
0.49617	0.000386419
0.62117	0.000388952
0.74617	0.0003863
0.871185	0.000383647
0.996185	0.000380995
1.12119	0.000383081
1.2462	0.000382187
1.3712	0.000379266
1.4962	0.000381382
1.62122	0.000379773
1.74622	0.000380935
1.87122	0.000379087
1.99623	0.000384064
2.12033	0.000379743
2.24625	0.000379207
2.37125	0.000381531
2.49625	0.000382753
2.62126	0.000382574
2.74626	0.000380101
2.87126	0.000379385
2.99628	0.000381472
3.12128	0.000379773
3.24628	0.000381382
3.37129	0.000383349
3.49629	0.000380071
3.62131	0.000382693
3.74631	0.00038019
3.87131	0.000381978
3.99617	0.000384452
4.12085	0.000382187
4.24586	0.000384035
4.3708	0.000382246
4.49559	0.000382336
4.62053	0.00037867
4.74521	0.00038022
4.87135	0.000381919
4.99635	0.00037712
5.12137	0.000376465
5.24637	0.000379415
5.37138	0.000382008
5.49638	0.000378819
5.62138	0.000376673
5.7464	0.000379892
5.8714	0.000379773
5.9964	0.000379922
6.12141	0.00038025
6.24641	0.000379117
6.37143	0.000382604
6.49643	0.000385048
6.62143	0.000383021
6.74644	0.000383051
6.87144	0.000381352
6.99646	0.000379028
7.12147	0.000385823
7.24647	0.000384452
7.37147	0.000382664
7.49648	0.000384392
7.62148	0.000384124
7.74648	0.000385137
7.8715	0.000385733
7.9965	0.000383528
8.1215	0.000385614
8.24651	0.000383111
8.37151	0.000384392
8.49653	0.000382723
8.62153	0.000384154
8.74653	0.000387164
8.87126	0.000379981
8.99654	0.000379832
9.12155	0.000380548
9.24656	0.000378998
9.37156	0.000374945
9.49657	0.000377091
9.62157	0.000376942
9.74658	0.00038022
9.87159	0.000374975
9.99659	0.000375779
10.1216	0.000373604
10.2466	0.000374855
10.3716	0.000372918
10.4966	0.000374498
10.6216	0.000373753
10.7466	0.000375839
10.8716	0.000375958
10.9966	0.000374855
11.1216	0.000378581
11.2466	0.000376703
11.3717	0.000374498
11.4967	0.000378909
11.6217	0.000381025
11.7467	0.000379624
11.8717	0.000379981
11.9967	0.000379117
12.1217	0.00038177
12.2454	0.00037712
12.3717	0.000378491
12.4967	0.000376793
12.6217	0.00037569
12.7467	0.000380548
12.8717	0.000382008
12.9967	0.000380101
13.1217	0.000379773
13.2467	0.000381442
13.3717	0.000378462
13.4967	0.000379326
13.6217	0.000379385
13.7468	0.000380607
13.8711	0.000375839
13.9963	0.000374736
14.1209	0.000375183
14.2468	0.000371369
14.3718	0.000370117
14.4968	0.000375034
14.6218	0.000373634
14.7468	0.000368329
14.8718	0.000368806
14.9968	0.000373187
15.1218	0.000372322
15.2468	0.000370802
15.3718	0.000370355
15.4968	0.000370683
15.6218	0.000367763
15.7468	0.000368537
15.8719	0.000370802
15.9969	0.000368746
16.1219	0.000371577
16.2469	0.000373276
16.3719	0.000374021
16.4969	0.00037417
16.6219	0.000373842
16.7469	0.000375362
16.8719	0.000374438
16.9969	0.000379207
17.1219	0.000379207
17.2469	0.000375392
17.3719	0.000377836
17.4969	0.000375452
17.6219	0.000378134
17.7469	0.000373902
17.872	0.000373038
17.997	0.000377657
18.122	0.00036967
18.247	0.000371428
18.372	0.0003711
18.497	0.000372471
18.622	0.000370773
18.747	0.000368061
18.872	0.000365885
18.997	0.000366243
19.122	0.000361295
19.247	0.000363888
19.372	0.000361474
19.497	0.00036204
19.622	0.000364842
19.747	0.000364186
19.872	0.000366153
19.997	0.00036809
20.1221	0.000367703
20.2471	0.000370713
20.3721	0.000369849
20.4971	0.000367435
20.6221	0.000373127
20.7471	0.000368388
20.8721	0.000372829
20.9971	0.000371458
21.1221	0.00037116
21.2471	0.00037116
21.3721	0.000371309
21.4971	0.000369342
21.6221	0.000365438
21.7471	0.000369431
21.8717	0.000367614
21.9955	0.000366421
22.121	0.000366421
22.2471	0.000364782
22.3722	0.000363501
22.4972	0.000364693
22.6222	0.000361891
22.7472	0.000362666
22.8722	0.000362994
22.9972	0.000362875
23.1222	0.000361027
23.2472	0.000363352
23.3722	0.000365289
23.4972	0.000364246
23.6222	0.000362219
23.7472	0.00036517
23.8722	0.000363918
23.9972	0.000359507
24.1222	0.000361951
24.2472	0.000363113
24.3722	0.00036064
24.4973	0.000363411
24.6223	0.000363471
24.7473	0.000356736
24.8723	0.000358166
24.9973	0.000358852
25.1223	0.000357987
25.2473	0.000356318
25.3723	0.000357809
25.4973	0.000358107
25.6223	0.000353606
25.7473	0.000360342
25.8722	0.000361504
25.9973	0.000356318
26.1222	0.000356438
26.2472	0.000356467
26.3722	0.000359239
26.4973	0.000359507
26.6224	0.000358911
26.7474	0.000360461
26.8724	0.000358285
26.9974	0.000357928
27.1224	0.000355186
27.2474	0.000360699
27.3724	0.000360074
27.4974	0.000361564
27.6224	0.000360938
27.7474	0.000357123
27.8724	0.000355305
27.9974	0.000356259
28.1224	0.000357034
28.2474	0.000358107
28.3723	0.000356676
28.4974	0.000353159
28.6223	0.000349851
28.7474	0.00034559
28.8724	0.000353696
28.9975	0.000352027
29.1225	0.000349374
29.2475	0.000348778
29.3725	0.000348629
29.4975	0.000350418
29.6225	0.000350328
29.7475	0.000352474
29.8725	0.000351908
29.9975	0.000353934
30.1225	0.000353517
30.2475	0.000352236
30.3725	0.000351103
30.4975	0.000354441
30.6225	0.000351341
30.7475	0.000354411
30.8725	0.000354828
30.9975	0.00035453
31.1226	0.000353815
31.2476	0.000353219
31.3726	0.000351133
31.4976	0.000347288
31.6226	0.000348033
31.7476	0.000348451
31.8726	0.000350149
31.9976	0.000346037
32.1226	0.000343861
32.2476	0.000345321
32.3726	0.000343414
32.4976	0.00034395
32.6226	0.000343742
32.7476	0.000345947
32.8726	0.000343831
32.9976	0.000347139
33.1226	0.000346037
33.2477	0.00034705
33.3727	0.000348838
33.4977	0.000345143
33.6227	0.000346722
33.7477	0.000347139
33.8727	0.000341864
33.9977	0.000348361
34.1227	0.00034553
34.2477	0.000344994
34.3727	0.000343116
34.4977	0.000341805
34.6227	0.00034255
34.7477	0.000339003
34.8727	0.00034106
34.9977	0.000343831
35.1227	0.000341119
35.2477	0.000341
35.3727	0.000341745
35.4977	0.000336649
35.6228	0.000338109
35.7478	0.000337424
35.8728	0.000341715
35.9978	0.000336202
36.1228	0.000336291
36.2478	0.000335189
36.3728	0.000335457
36.4978	0.000335427
36.6228	0.000333132
36.7478	0.000331583
36.8728	0.000334205
36.9978	0.000330957
37.1228	0.000331284
37.2478	0.000328453
37.3728	0.00032902
37.4978	0.000331612
37.6228	0.000328572
37.7479	0.000329407
37.8725	0.000329705
37.9977	0.000329318
38.1226	0.000329049
38.2472	0.000328394
38.3723	0.00032747
38.4971	0.00032443
38.6229	0.000327053
38.7479	0.000326039
38.8729	0.000324311
38.9979	0.000325801
39.1229	0.000325652
39.2479	0.000324579
39.3729	0.000324996
39.4979	0.000324877
39.6229	0.000323327
39.7479	0.000323357
39.8729	0.000319423
39.998	0.000322225
40.1227	0.000320049
40.2479	0.000320734
40.3723	0.000317724
40.4973	0.000316413
40.6226	0.000316354
40.748	0.000314118
40.873	0.000312986
40.998	0.000311496
41.123	0.000308575
41.248	0.000306757
41.373	0.000306489
41.498	0.000305029
41.623	0.000307383
41.748	0.000308247
41.873	0.000304015
41.998	0.00030488
42.123	0.00030336
42.2481	0.000303598
42.3731	0.000303777
42.4981	0.000307443
42.6231	0.000306489
42.7481	0.000306549
42.8731	0.000304015
42.9981	0.000306936
43.1224	0.000304939
43.2481	0.00030336
43.3731	0.000300588
43.4981	0.000299873
43.6231	0.000297399
43.7481	0.000293972
43.8731	0.000292571
43.9981	0.000291349
44.1231	0.000290396
44.2482	0.000291588
44.3732	0.000289412
44.4982	0.000289144
44.6232	0.000286849
44.7482	0.00029129
44.8732	0.000287922
44.9982	0.000292035
45.1232	0.000288727
45.2482	0.000288876
45.3732	0.000285538
45.4982	0.000287713
45.6232	0.000283094
45.7482	0.000287177
45.8732	0.000283243
45.9982	0.000281455
46.1232	0.000279875
46.2482	0.000278087
46.3733	0.000275495
46.4983	0.000276538
46.6233	0.000272008
46.7483	0.000269564
46.8733	0.000271233
46.9983	0.000267895
47.1233	0.000269057
47.2483	0.000266554
47.3733	0.00026709
47.4983	0.00026417
47.6233	0.000266911
47.7483	0.000268759
47.8733	0.000270398
47.9983	0.000271948
48.1233	0.000268729
48.2483	0.000269296
48.3733	0.000270428
48.4976	0.00026715
48.6222	0.000265332
48.747	0.000271203
48.8734	0.00026563
48.9984	0.000265511
49.1234	0.000261249
49.2484	0.000260951
49.3734	0.000260146
49.4984	0.000259699
49.6234	0.000254543
49.7484	0.000255736
49.8734	0.000253232
49.9984	0.000253798
50.1234	0.000252726
50.2484	0.000253858
50.3734	0.000250461
50.4984	0.000245424
50.6234	0.00024286
50.7484	0.000247331
50.8735	0.000246407
50.997	0.000248315
51.1235	0.000246348
51.2485	0.000246795
51.3735	0.000247302
51.4985	0.000246944
51.6235	0.000250669
51.7485	0.000249537
51.8735	0.000248583
51.9985	0.000248911
52.1235	0.000245037
52.2485	0.00024134
52.3735	0.000242324
52.4985	0.000240506
52.6235	0.000239969
52.7485	0.000237883
52.8727	0.000239373
52.9984	0.00023827
53.1226	0.000238151
53.2486	0.000233413
53.3736	0.000235052
53.4986	0.000229509
53.6236	0.000232131
53.7486	0.000233204
53.8736	0.000229658
53.9986	0.000229568
54.1236	0.000230403
54.2486	0.000228168
54.3736	0.000229479
54.4986	0.00022626
54.6236	0.000226826
54.7486	0.000223399
54.8736	0.00022623
54.9986	0.000224263
55.1236	0.000225545
55.2486	0.000224025
55.3737	0.000226886
55.4987	0.000223846
55.6237	0.000225664
55.7487	0.000220598
55.8727	0.000223042
55.9987	0.000221194
56.1237	0.000219376
56.2487	0.000214846
56.3737	0.000213535
56.4987	0.000211508
56.6237	0.000209154
56.7487	0.000210435
56.8737	0.000203551
56.9987	0.000203461
57.1237	0.000203551
57.2487	0.00020212
57.3737	0.000203372
57.4987	0.00020513
57.6238	0.000204832
57.7481	0.000201584
57.873	0.000204385
57.9988	0.000205488
58.1238	0.000207693
58.2488	0.000203551
58.3738	0.000205428
58.4988	0.000205756
58.6238	0.000198812
58.7488	0.000198961
58.8738	0.000200362
58.9988	0.000196517
59.1238	0.000197024
59.2488	0.000198335
59.3738	0.000197888
59.4988	0.000194252
59.6238	0.000197888
59.7489	0.000196219
59.8739	0.000189395
59.9989	0.000190736
60.1239	0.000188501
60.2489	0.000186146
60.3739	0.000184269
60.4989	0.000182987
60.6239	0.000183106
60.7489	0.000182361
60.8739	0.000184597
60.9989	0.000186265
61.1239	0.000187458
61.2489	0.000188441
61.3739	0.000181944
61.4989	0.000189991
61.6239	0.000186653
61.7489	0.000184477
61.874	0.000177623
61.999	0.000179679
62.1238	0.000176729
62.2485	0.000173838
62.3736	0.000176103
62.499	0.000175507
62.624	0.000174941
62.749	0.000176699
62.874	0.00017798
62.999	0.000172676
63.124	0.000175179
63.249	0.000173897
63.374	0.000173003
63.499	0.0001705
63.624	0.00016904
63.749	0.000168682
63.874	0.000165761
63.999	0.000166447
64.1239	0.00016594
64.2489	0.000163467
64.3737	0.00016299
64.4989	0.000164063
64.6237	0.000157566
64.7486	0.0001584
64.8738	0.000156612
64.9986	0.000154317
65.1232	0.000153662
65.2491	0.000152529
65.3741	0.000154019
65.4991	0.000151367
65.624	0.000151129
65.7488	0.000153274
65.8739	0.000155837
65.999	0.000151605
66.1238	0.000150771
66.2492	0.00015238
66.3742	0.000153721
66.4992	0.000152082
66.6242	0.000151337
66.7492	0.000148446
66.8742	0.000149221
66.9992	0.00014639
67.1242	0.000145466
67.2492	0.000145734
67.3742	0.000145555
67.4992	0.000146479
67.6242	0.000143857
67.7492	0.000143112
67.8742	0.000143022
67.9992	0.000136704
68.1242	0.000138314
68.2492	0.000135333
68.3742	0.000135035
68.4993	0.000132979
68.6243	0.000128032
68.7493	0.000128598
68.8743	0.000128956
68.9993	0.000131072
69.1243	0.000127257
69.2493	0.000130356
69.3743	0.000128896
69.4993	0.000127614
69.6243	0.000129432
69.7493	0.000128807
69.8743	0.000130148
69.9993	0.000127585
70.124	0.000125439
70.2492	0.000124902
70.3742	0.000123353
70.4988	0.000124455
70.6244	0.000120253
70.7494	0.000122786
70.8744	0.000121981
70.9994	0.000118912
71.1244	0.000119448
71.2494	0.000121892
71.3744	0.000114859
71.4994	0.000118703
71.6244	0.000113875
71.7494	0.000113219
71.8744	0.000113339
71.9994	0.00011167
72.1244	0.000112534
72.2494	0.000107915
72.3744	0.000112653
72.4994	0.000110299
72.6244	0.000112117
72.7494	0.000110806
72.8745	0.00010705
72.9995	0.000107021
73.1245	0.000108004
73.2495	0.000105709
73.3745	0.000106276
73.4995	0.000103951
73.6245	0.000105888
73.7495	0.000102967
73.8745	0.00010565
73.9995	0.000103742
74.1245	0.000102401
74.2495	0.000100792
74.3745	9.62E-05
74.4995	9.74E-05
74.6245	9.45E-05
74.7495	9.39E-05
74.8745	9.26E-05
74.9995	9.52E-05
75.1246	9.47E-05
75.2478	9.20E-05
75.3729	9.16E-05
75.4996	8.86E-05
75.6246	9.11E-05
75.7496	8.81E-05
75.8746	8.46E-05
75.9996	8.55E-05
76.1246	8.31E-05
76.2496	8.32E-05
76.3746	8.36E-05
76.4996	8.10E-05
76.6246	8.68E-05
76.7496	8.46E-05
76.8746	8.68E-05
76.9996	8.15E-05
77.1246	7.94E-05
77.2496	7.61E-05
77.3747	7.50E-05
77.4997	7.67E-05
77.6229	7.45E-05
77.7485	7.43E-05
77.8747	7.22E-05
77.9997	7.41E-05
78.1247	7.33E-05
78.2497	7.51E-05
78.3747	7.24E-05
78.4997	7.08E-05
78.6247	6.90E-05
78.7497	7.01E-05
78.8747	6.92E-05
78.9997	6.65E-05
79.1247	6.87E-05
79.2497	6.44E-05
79.3747	6.07E-05
79.4998	6.23E-05
79.6248	6.03E-05
79.7498	5.86E-05
79.8748	5.85E-05
79.9998	5.86E-05
80.1248	5.61E-05
80.2498	5.93E-05
80.3748	5.73E-05
80.4998	5.62E-05
80.6248	5.90E-05
80.7498	5.73E-05
80.8748	5.42E-05
80.9998	5.51E-05
81.1248	5.32E-05
81.2498	5.25E-05
81.3748	4.92E-05
81.4998	4.61E-05
81.6243	4.61E-05
81.7499	4.75E-05
81.8749	4.59E-05
81.9999	4.98E-05
82.1249	4.61E-05
82.2499	4.74E-05
82.3749	4.38E-05
82.4999	4.60E-05
82.6249	4.40E-05
82.7499	4.49E-05
82.8749	4.10E-05
82.9999	4.12E-05
83.1249	3.73E-05
83.2499	3.87E-05
83.3749	3.74E-05
83.4999	3.42E-05
83.6249	3.63E-05
83.7499	3.39E-05
83.8745	3.20E-05
84	2.82E-05
84.125	2.79E-05
84.25	2.24E-05
84.375	1.90E-05
84.5	1.91E-05
84.625	1.98E-05
84.75	1.81E-05
84.875	1.89E-05
85	1.82E-05
85	1.88E-05
-0.00386047	0.00038779
0.12114	0.000388147
0.246155	0.000391455
0.371155	0.000388386
0.49617	0.000387134
0.62117	0.000385495
0.74617	0.000387819
0.871185	0.000386002
0.996185	0.000381591
1.12117	0.000381233
1.2462	0.000380399
1.37115	0.000382783
1.4962	0.000380667
1.62122	0.000379803
1.74622	0.000380756
1.87122	0.000384482
1.99623	0.000381174
2.12123	0.000378849
2.24625	0.000379266
2.37125	0.000383111
2.49625	0.000382902
2.62126	0.000379475
2.74626	0.000380965
2.87126	0.000382813
2.99628	0.00038177
3.12128	0.000382664
3.24628	0.000383766
3.37129	0.000382127
3.49629	0.000382992
3.62131	0.000379922
3.74631	0.000387134
3.87131	0.000382693
3.99632	0.000383439
4.12132	0.000383677
4.24632	0.000383439
4.37134	0.000381114
4.49498	0.000382366
4.61995	0.000378074
4.74635	0.000380876
4.87135	0.000381323
4.99635	0.000379564
5.12137	0.000381025
5.24637	0.000380935
5.37138	0.000378521
5.49638	0.00038025
5.62138	0.000376793
5.7464	0.000377359
5.8714	0.000380518
5.9964	0.000379505
6.12141	0.000380071
6.24641	0.000382455
6.37143	0.000380965
6.49643	0.000382753
6.62143	0.000383051
6.74644	0.000383588
6.87144	0.000381114
6.99646	0.000383975
7.12147	0.000385584
7.24647	0.00038326
7.37147	0.000383617
7.49648	0.000382992
7.62148	0.000386657
7.74648	0.000386925
7.8715	0.000385286
7.9965	0.000384094
8.1215	0.000385048
8.24651	0.00038475
8.37151	0.000383975
8.49653	0.000385405
8.62153	0.000384601
8.74653	0.000381978
8.87154	0.000382425
8.99654	0.000379475
9.12155	0.000380637
9.24656	0.000378104
9.37156	0.000377031
9.49657	0.000378193
9.61993	0.000377687
9.74658	0.000374736
9.87159	0.000374826
9.99659	0.000376048
10.1216	0.000375452
10.2466	0.000374617
10.3716	0.000373067
10.4966	0.000375004
10.6216	0.000373693
10.7466	0.000376465
10.8716	0.000374617
10.9966	0.000377806
11.1216	0.000378849
11.2466	0.000377508
11.3717	0.000377418
11.4959	0.000381501
11.6206	0.00038466
11.7467	0.000379475
11.8717	0.00038019
11.9967	0.000382246
12.1217	0.00038165
12.2467	0.000380905
12.3717	0.000379892
12.4967	0.000382723
12.6217	0.000381501
12.7467	0.000379356
12.8717	0.000380518
12.9967	0.000380101
13.1217	0.000379594
13.2467	0.000379832
13.3717	0.000383021
13.4967	0.000382813
13.6217	0.000381889
13.7468	0.000377657
13.8718	0.000381174
13.9968	0.000376197
14.1218	0.000376107
14.2455	0.000375601
14.3718	0.000373693
14.4968	0.000373514
14.6218	0.000373306
14.7468	0.000374349
14.8718	0.000373097
14.9968	0.000369402
15.1218	0.000372948
15.2468	0.000370713
15.3718	0.000373812
15.4968	0.000372054
15.6218	0.000372233
15.7468	0.00036964
15.8719	0.000371398
15.9969	0.00037265
16.1219	0.000370326
16.2463	0.000373365
16.3719	0.000372471
16.4969	0.000373961
16.6219	0.000377001
16.7469	0.000374826
16.8719	0.000375273
16.9969	0.00037715
17.1219	0.000377508
17.2469	0.000378372
17.3719	0.000377508
17.4969	0.000374587
17.6219	0.000376495
17.7469	0.000379058
17.872	0.000375511
17.997	0.000372471
18.122	0.0003711
18.247	0.000372143
18.3719	0.000372143
18.4965	0.000371905
18.622	0.000369402
18.747	0.000365617
18.872	0.000366272
18.997	0.00036365
19.122	0.00036511
19.247	0.000358166
19.372	0.000364574
19.497	0.000361504
19.622	0.00036368
19.747	0.000363799
19.872	0.000366541
19.997	0.000369253
20.1221	0.000366302
20.2471	0.000366153
20.3721	0.000369163
20.4971	0.00036669
20.6221	0.000369372
20.7471	0.0003711
20.8721	0.000369223
20.9971	0.000368806
21.1213	0.000369491
21.2464	0.000370892
21.3713	0.00036967
21.4958	0.000368686
21.6221	0.000368776
21.7471	0.000368418
21.8721	0.00036666
21.9971	0.000365766
22.1221	0.000363233
22.2471	0.000365766
22.3722	0.000361474
22.4972	0.000362488
22.6222	0.000362875
22.7472	0.000363024
22.8722	0.000362309
22.9972	0.000362488
23.1222	0.000361623
23.2472	0.000363143
23.3722	0.00036514
23.4972	0.000364544
23.6222	0.000363054
23.7472	0.000362517
23.8722	0.000365676
23.9962	0.000363411
24.1211	0.000364633
24.2455	0.000361355
24.3722	0.000361415
24.4973	0.000361891
24.6223	0.000361087
24.7473	0.000362279
24.8723	0.000359507
24.9973	0.000360223
25.1223	0.000359299
25.2473	0.000355067
25.3723	0.000356408
25.4973	0.000361117
25.6223	0.000355961
25.7473	0.000355216
25.8723	0.000356289
25.9973	0.00035605
26.1223	0.000356587
26.2473	0.000356438
26.3723	0.000355037
26.4959	0.000356318
26.621	0.000360908
26.7474	0.000357868
26.8724	0.000358464
26.9974	0.000357749
27.1224	0.000359567
27.2474	0.00036067
27.3724	0.000358166
27.4974	0.000359567
27.6224	0.000361057
27.7474	0.000358285
27.8724	0.000357868
27.9974	0.00035763
28.1224	0.000355603
28.2474	0.00035608
28.3724	0.000350865
28.4974	0.000355305
28.6224	0.000352325
28.7474	0.000351461
28.8716	0.000351133
28.9975	0.00035009
29.1225	0.00034848
29.2475	0.000348004
29.3725	0.000351312
29.4975	0.000348838
29.6225	0.000349762
29.7475	0.000350269
29.8725	0.000351133
29.9975	0.000350418
30.1225	0.000350447
30.2475	0.000352742
30.3725	0.000356467
30.4975	0.000355603
30.6225	0.000353159
30.7475	0.00035307
30.8725	0.000352593
30.9975	0.000354381
31.1226	0.000350328
31.2476	0.000352355
31.3726	0.000354471
31.4976	0.000350418
31.6226	0.000348689
31.7476	0.000347676
31.8726	0.000348272
31.9976	0.000348987
32.1226	0.000349583
32.2476	0.000347437
32.3726	0.000347318
32.4976	0.00034249
32.6226	0.000347467
32.7476	0.000346215
32.8726	0.000348808
32.9976	0.000344964
33.1226	0.000349196
33.2477	0.000347855
33.3727	0.00034702
33.4977	0.000347169
33.6227	0.000346275
33.7473	0.000346245
33.8719	0.000344636
33.9977	0.000347586
34.1227	0.000347139
34.2477	0.000345143
34.3727	0.000342937
34.4977	0.000340166
34.6227	0.000343086
34.7477	0.000346275
34.8727	0.000343623
34.9977	0.000343027
35.1227	0.000341626
35.2477	0.000341
35.3727	0.000342282
35.4977	0.000339093
35.6228	0.000337096
35.7478	0.00033653
35.8728	0.000338914
35.9978	0.000340076
36.1228	0.000337364
36.2478	0.000336977
36.3728	0.000334861
36.4978	0.000335934
36.6228	0.000333222
36.7478	0.0003334
36.8728	0.000334473
36.9978	0.000332357
37.1228	0.000331821
37.2478	0.000330271
37.3728	0.000329496
37.4978	0.000329914
37.6228	0.000331076
37.7479	0.000329407
37.8729	0.000328304
37.9979	0.000329407
38.1229	0.000327053
38.2479	0.00032893
38.3729	0.000325205
38.4979	0.000330212
38.6229	0.000330688
38.7479	0.000326695
38.8729	0.000325413
38.9979	0.000327798
39.1229	0.000324519
39.2479	0.00032592
39.3729	0.000325175
39.4979	0.000326904
39.6229	0.000327559
39.7479	0.000322642
39.8729	0.000324013
39.998	0.000320854
40.123	0.000318469
40.248	0.00032136
40.373	0.000318171
40.498	0.000316503
40.623	0.000315966
40.748	0.000315757
40.873	0.000308456
40.998	0.000311764
41.123	0.000305386
41.248	0.000309261
41.373	0.000309171
41.498	0.000305386
41.623	0.000305088
41.748	0.000307204
41.873	0.000305327
41.998	0.000306012
42.123	0.000308486
42.2481	0.000305654
42.3731	0.000306727
42.4981	0.000307323
42.6231	0.000303121
42.7481	0.000302346
42.8731	0.000308516
42.9981	0.000305684
43.1231	0.00030336
43.2481	0.000304969
43.3731	0.000303688
43.4981	0.000302108
43.6231	0.00029582
43.7481	0.000292839
43.8731	0.000293376
43.9981	0.000291141
44.1231	0.000286104
44.2482	0.000289204
44.3732	0.000290455
44.4982	0.000291081
44.6232	0.000291558
44.7482	0.000291558
44.8732	0.000290098
44.9982	0.000289859
45.1232	0.000290724
45.2482	0.000290515
45.3732	0.000291796
45.4982	0.000287862
45.6232	0.000288161
45.7482	0.00028378
45.8732	0.000285329
45.9982	0.000283571
46.1232	0.000281246
46.2482	0.000274749
46.3733	0.000276627
46.4983	0.000274362
46.6233	0.000277849
46.7483	0.000274094
46.8733	0.000272514
46.9983	0.000270726
47.1233	0.000268789
47.2483	0.000268849
47.3733	0.00026861
47.4968	0.000268789
47.6233	0.000266673
47.7483	0.000267358
47.8733	0.000268551
47.9983	0.000268372
48.1233	0.000268908
48.2483	0.000267478
48.3733	0.000267835
48.4983	0.000268461
48.6233	0.000264408
48.7484	0.000264348
48.8734	0.000267031
48.9984	0.000261398
49.1231	0.000259312
49.2484	0.000258746
49.3734	0.000259133
49.4984	0.000255974
49.6234	0.000258001
49.7484	0.000257196
49.8734	0.000251206
49.9984	0.000249209
50.1234	0.000247778
50.2484	0.000248106
50.3734	0.000245931
50.4984	0.000249745
50.6234	0.000246407
50.7484	0.00024608
50.8735	0.00024596
50.9985	0.000250252
51.1235	0.000247451
51.2485	0.000247898
51.3735	0.000245901
51.4985	0.000248494
51.6235	0.000248047
51.7485	0.000248345
51.8735	0.000245484
51.9985	0.000245275
52.1235	0.00024903
52.2485	0.000242294
52.3735	0.000242562
52.4985	0.000237108
52.6235	0.000236512
52.7485	0.000240148
52.8735	0.000236453
52.9985	0.000234515
53.1236	0.00023529
53.2486	0.000234009
53.3736	0.000232995
53.4986	0.000234128
53.6236	0.000233741
53.7486	0.000232161
53.8736	0.000231714
53.9982	0.000229062
54.1236	0.000227244
54.2486	0.0002293
54.3736	0.000227482
54.4986	0.000226677
54.6236	0.000226916
54.7486	0.000227601
54.8736	0.000223995
54.9986	0.000225724
55.1236	0.000225128
55.2486	0.000222803
55.3737	0.000226707
55.4987	0.000224293
55.6237	0.000223667
55.7487	0.00022024
55.8737	0.000218333
55.9987	0.000217498
56.1237	0.000217647
56.2487	0.000214101
56.3737	0.000213445
56.4987	0.000208379
56.6237	0.000206769
56.7487	0.000202418
56.8737	0.000203938
56.9987	0.00020212
57.1237	0.00019917
57.2486	0.000201852
57.3737	0.000203402
57.4987	0.000200153
57.6238	0.000206024
57.7488	0.000203342
57.8738	0.000205309
57.9988	0.000206442
58.1238	0.000205071
58.2488	0.000205875
58.3738	0.000204594
58.4988	0.000204117
58.6238	0.000200064
58.7488	0.000199587
58.8738	0.000199468
58.9988	0.000199468
59.1238	0.000197471
59.2488	0.000198067
59.3738	0.00019616
59.4979	0.000195802
59.6238	0.00019619
59.7489	0.000192047
59.8739	0.000191868
59.9989	0.000190378
60.1239	0.000188828
60.2489	0.000186355
60.3739	0.000184358
60.4989	0.000185401
60.6239	0.000184537
60.7489	0.000183941
60.8739	0.000182719
60.9989	0.000185252
61.1239	0.000187368
61.2489	0.000186355
61.3739	0.000186861
61.4989	0.000186385
61.6239	0.000182242
61.7489	0.000184149
61.874	0.00018111
61.999	0.000183613
62.124	0.000175149
62.249	0.000175149
62.374	0.000175119
62.499	0.000175179
62.624	0.000174255
62.749	0.000178398
62.874	0.000174255
62.999	0.000176162
63.124	0.000176937
63.249	0.000175894
63.374	0.000173361
63.499	0.000172318
63.624	0.000169368
63.749	0.000165553
63.874	0.000168384
63.999	0.000164778
64.1241	0.000163109
64.2491	0.000162722
64.3741	0.000161082
64.4991	0.000159265
64.6241	0.000161202
64.7491	0.000155986
64.8741	0.000156135
64.9991	0.000154496
65.1241	0.00015241
65.2491	0.000153274
65.3741	0.000153036
65.4991	0.00015387
65.6241	0.000154794
65.7491	0.000151963
65.8741	0.000153692
65.9991	0.000153423
66.1241	0.000155778
66.2492	0.000151874
66.3742	0.000150026
66.4992	0.00014943
66.6242	0.000147314
66.7492	0.000147075
66.8742	0.000146241
66.9992	0.000148029
67.1242	0.000144423
67.2492	0.000145973
67.3742	0.000145108
67.4992	0.000148059
67.6242	0.000145615
67.7492	0.000140817
67.8742	0.00014344
67.9992	0.000139714
68.1242	0.000133635
68.2489	0.000133396
68.3738	0.000134201
68.4993	0.000133038
68.6243	0.000129552
68.7493	0.000129194
68.8743	0.000129283
68.9993	0.000130923
69.1243	0.000128717
69.2493	0.000129224
69.3743	0.000131191
69.4993	0.000130088
69.6243	0.000128777
69.7493	0.00012824
69.8743	0.000129641
69.9993	0.000130207
70.1243	0.000126184
70.2493	0.00012678
70.3743	0.000124187
70.4993	0.000122786
70.6244	0.000124008
70.7494	0.00012228
70.8744	0.000122667
70.9994	0.000119389
71.1244	0.000119657
71.2477	0.00011921
71.3726	0.000115484
71.4975	0.00011459
71.6244	0.000112981
71.7494	0.000115216
71.8744	0.000112355
71.9994	0.000110656
72.1244	0.000114114
72.2494	0.000112027
72.3744	0.000110269
72.4994	0.00011015
72.6244	0.000109315
72.7494	0.000108004
72.8745	0.000106305
72.9995	0.000106186
73.1245	0.00010559
73.2495	0.000105232
73.373	0.000103653
73.4989	0.000103027
73.6245	0.000106693
73.7495	0.000107229
73.8745	0.0001041
73.9995	0.00010416
74.1245	9.99E-05
74.2495	0.000104398
74.3745	9.84E-05
74.4995	9.74E-05
74.6245	9.70E-05
74.7495	9.37E-05
74.8745	9.35E-05
74.9995	9.27E-05
75.1246	9.30E-05
75.2496	8.73E-05
75.3746	8.99E-05
75.4996	9.39E-05
75.6246	8.61E-05
75.7496	8.57E-05
75.8746	8.68E-05
75.9996	8.27E-05
76.1246	7.81E-05
76.2496	8.37E-05
76.3746	8.40E-05
76.4996	8.64E-05
76.6246	8.61E-05
76.7496	8.50E-05
76.8746	8.51E-05
76.9996	8.34E-05
77.1246	8.07E-05
77.2496	7.64E-05
77.3747	7.39E-05
77.4997	7.46E-05
77.6247	7.47E-05
77.7488	7.24E-05
77.8747	6.94E-05
77.9997	7.55E-05
78.1247	7.21E-05
78.2497	7.10E-05
78.3747	7.13E-05
78.4997	7.18E-05
78.6247	7.22E-05
78.7497	6.91E-05
78.8747	6.89E-05
78.9997	6.91E-05
79.1247	6.71E-05
79.2497	6.45E-05
79.3747	6.27E-05
79.4998	5.80E-05
79.6248	6.17E-05
79.7498	5.84E-05
79.8748	5.87E-05
79.9998	5.93E-05
80.1248	5.71E-05
80.2498	5.62E-05
80.3741	6.01E-05
80.4986	5.78E-05
80.6248	5.84E-05
80.7498	5.80E-05
80.8748	5.73E-05
80.9998	5.59E-05
81.1248	5.44E-05
81.2498	4.90E-05
81.3748	4.72E-05
81.4998	4.77E-05
81.6248	5.05E-05
81.7499	4.52E-05
81.8749	4.65E-05
81.9999	4.32E-05
82.1249	4.87E-05
82.2499	4.63E-05
82.3749	4.50E-05
82.4999	4.24E-05
82.6249	4.19E-05
82.7499	4.38E-05
82.8749	4.07E-05
82.9999	4.11E-05
83.1249	3.59E-05
83.2499	4.02E-05
83.3749	3.62E-05
83.4999	3.71E-05
83.6249	3.75E-05
83.7499	3.25E-05
83.875	2.84E-05
84	3.01E-05
84.1235	2.46E-05
84.25	2.32E-05
84.375	2.25E-05
84.5	2.20E-05
84.625	2.16E-05
84.75	2.04E-05
84.875	2.02E-05
85	1.88E-05
85	1.47E-05
