Photodiode Viewing Angle (Degrees) - Plot 0	Lock-in Signal Amplitude (V) - Plot 0
-0.00386047	0.000103295
0.12114	0.000104383
0.246155	0.000104301
0.371155	0.000104726
0.49617	0.000103571
0.62117	0.000103944
0.74617	0.00010407
0.871185	0.000104003
0.996185	0.000103415
1.12119	0.000103944
1.2462	0.000101187
1.37091	0.00010524
1.4962	0.000105307
1.62122	0.000107237
1.74622	0.00010191
1.87122	0.000100844
1.99623	0.000104122
2.12123	0.0001015
2.24625	0.000103899
2.37125	0.000103131
2.49625	0.000103079
2.62126	0.000101455
2.74626	0.000100956
2.87126	9.79E-05
2.99628	0.000101082
3.12128	0.00010103
3.24628	9.93E-05
3.37129	0.000101038
3.49629	9.97E-05
3.62131	0.000103519
3.74631	0.000100479
3.87131	0.000101395
3.99632	0.000103295
4.12132	0.000103631
4.24632	0.000101291
4.37103	0.000103735
4.49634	0.00010033
4.62134	0.000102036
4.74635	0.000101105
4.87135	0.000102215
4.99635	0.000102565
5.12137	0.000103713
5.24637	0.000101381
5.37138	0.000101887
5.49638	0.000100784
5.62138	0.00010106
5.7464	0.000101574
5.8714	0.000100337
5.9964	0.000101991
6.12141	0.000101932
6.24641	0.000102327
6.37143	0.000101895
6.49643	9.87E-05
6.62143	0.000100419
6.74644	0.000100516
6.87144	0.000105344
6.99646	0.000101597
7.12147	9.95E-05
7.24647	9.73E-05
7.37147	0.000104279
7.49648	0.000100434
7.62148	0.000101172
7.74648	0.000101082
7.8715	0.000100561
7.9965	0.000101306
8.1215	0.000101842
8.24651	9.75E-05
8.37151	0.000101053
8.49653	0.000105978
8.62153	9.97E-05
8.74653	0.000103608
8.87154	0.000101641
8.99654	9.95E-05
9.12155	0.00010521
9.24605	0.00010106
9.37072	0.00010176
9.49657	9.94E-05
9.62157	0.000101664
9.74658	0.000102535
9.87159	9.79E-05
9.99659	0.000101626
10.1216	0.000100151
10.2466	0.000102856
10.3716	0.000103906
10.4966	9.92E-05
10.6216	0.000100166
10.7466	9.95E-05
10.8716	0.000101172
10.9966	9.94E-05
11.1216	9.88E-05
11.2466	0.00010264
11.3717	0.000103787
11.4967	9.65E-05
11.6217	9.86E-05
11.7467	0.000101552
11.8717	9.97E-05
11.9967	9.96E-05
12.1217	0.000104107
12.2467	0.000100054
12.3717	9.96E-05
12.4967	0.000100866
12.6217	0.000101462
12.7467	0.000100106
12.8717	9.91E-05
12.9967	9.55E-05
13.1217	0.000100524
13.2467	9.89E-05
13.3717	9.97E-05
13.4967	0.000104659
13.6217	0.000101932
13.7468	0.000103377
13.8718	0.000103236
13.9968	0.000102565
14.1218	0.000103444
14.2468	0.000103519
14.3718	0.000102781
14.4968	0.000104174
14.6218	0.000103683
14.7468	0.000101001
14.8718	0.000100002
14.9968	0.000101887
15.1218	0.000103742
15.2468	0.000101641
15.3718	0.000100837
15.4968	0.000102342
15.6218	9.86E-05
15.7468	0.000102662
15.8719	9.66E-05
15.9969	9.86E-05
16.1219	0.000100181
16.2469	0.000101522
16.3719	0.000100188
16.4969	0.000101708
16.6219	9.78E-05
16.7469	0.000101217
16.8719	9.73E-05
16.9969	0.000101179
17.1219	0.000100025
17.2469	0.000100434
17.3719	0.000102737
17.4969	9.96E-05
17.6219	0.000103817
17.7469	0.000104189
17.872	0.000101448
17.997	0.000101172
18.122	0.000101939
18.247	0.000101716
18.372	0.000101932
18.497	0.000103198
18.622	0.000101544
18.7469	0.000104212
18.872	0.000100323
18.997	0.000101351
19.122	0.000102208
19.247	0.000100367
19.372	0.000101842
19.497	0.000100404
19.622	9.90E-05
19.747	0.000104085
19.872	0.000101462
19.997	0.000100829
20.1221	9.94E-05
20.2471	0.000101604
20.3721	9.88E-05
20.4971	0.000103973
20.6221	0.000100419
20.7471	9.83E-05
20.8721	0.0001003
20.9971	0.000101582
21.1221	0.000101291
21.2471	0.000105076
21.3721	0.000103631
21.4971	0.000104554
21.6221	0.000105635
21.7471	0.00010416
21.8721	0.000102997
21.9971	0.000103102
22.1221	0.000103966
22.2471	0.000104271
22.3722	0.000104353
22.4972	0.000104309
22.6222	0.000104249
22.7472	0.000103541
22.8722	0.000104554
22.9972	0.000106447
23.1222	0.000106819
23.2472	0.000106559
23.3722	0.000101671
23.4972	0.000103795
23.6222	0.000105814
23.7472	0.000105836
23.8722	0.000104249
23.9972	0.000101597
24.1222	0.000104383
24.2472	0.000101611
24.3722	0.000103415
24.4973	0.000104167
24.6223	0.000105441
24.7473	0.000103742
24.8723	0.000102394
24.9973	0.000104726
25.1223	0.000102781
25.2473	0.00010369
25.3723	0.000102513
25.4973	0.00010416
25.6223	0.000106566
25.7473	0.000107266
25.8722	0.000105784
25.9972	0.000105799
26.1222	0.000105069
26.2472	0.000106991
26.3723	0.000104756
26.4973	0.000107274
26.6224	0.000104636
26.7474	0.00010594
26.8724	0.000107691
26.9974	0.000104689
27.1224	0.000105463
27.2474	0.000101269
27.3724	0.000101902
27.4974	0.000103645
27.6224	0.000103795
27.7474	0.000103772
27.8724	0.000104085
27.9974	0.000103459
28.1224	0.000104435
28.2474	0.000104502
28.3723	0.000102967
28.4974	0.00010486
28.6224	0.000104398
28.7474	0.000104808
28.8724	0.000105098
28.9975	0.000106432
29.1225	0.000104145
29.2475	0.000106946
29.3725	0.000106328
29.4975	0.00010226
29.6225	0.000104949
29.7475	0.000105493
29.8725	0.000106179
29.9975	0.000105322
30.1225	0.000103362
30.2475	0.000105069
30.3725	0.000103221
30.4975	0.000103519
30.6225	0.00010679
30.7475	0.000103102
30.8725	0.000107214
30.9975	0.000104934
31.1226	0.000106372
31.2476	0.000105501
31.3726	0.00010907
31.4976	0.000107341
31.6226	0.000106931
31.7476	0.000106335
31.8718	0.00011082
31.9976	0.000107058
32.1226	0.000110053
32.2476	0.000108213
32.3726	0.000108578
32.4976	0.000110515
32.6226	0.000109412
32.7476	0.000107974
32.8726	0.000109204
32.9976	0.000111059
33.1226	0.00011234
33.2476	0.00010632
33.3727	0.000105814
33.4977	0.000106805
33.6227	0.000108488
33.7477	0.000106663
33.8727	0.000107557
33.9977	0.000106439
34.1227	0.000109368
34.2477	0.000103914
34.3727	0.000108012
34.4977	0.000107922
34.6227	0.000111074
34.7477	0.000111349
34.8727	0.00011053
34.9977	0.000110463
35.1227	0.000109718
35.2477	0.000109427
35.3727	0.000108168
35.4977	0.000109964
35.6228	0.00011015
35.7478	0.000109479
35.8728	0.000109248
35.9978	0.000106626
36.1228	0.000109874
36.2478	0.000110835
36.3728	0.000110567
36.4978	0.000111543
36.6228	0.000107468
36.7478	0.000109442
36.8723	0.000109353
36.9973	0.000109032
37.1216	0.000109725
37.2478	0.000107453
37.3715	0.000109606
37.4978	0.000109308
37.6228	0.000108667
37.7479	0.000108667
37.8729	0.000109569
37.9979	0.000107892
38.1229	0.000114032
38.2479	0.000111171
38.3729	0.000109002
38.4979	0.000111998
38.6229	0.000110351
38.7479	0.00011196
38.8729	0.000108026
38.9979	0.000113734
39.1229	0.000110426
39.2479	0.000113138
39.3729	0.000112206
39.4979	0.000114643
39.6229	0.000112206
39.7479	0.000112102
39.8729	0.000113912
39.998	0.000110433
40.123	0.000113681
40.248	0.000113018
40.373	0.000115395
40.498	0.000111625
40.623	0.000113287
40.748	0.000113644
40.8728	0.000117504
40.998	0.00011383
41.123	0.000115656
41.248	0.000114263
41.373	0.000114747
41.498	0.000115537
41.623	0.000116565
41.748	0.00011538
41.873	0.000115656
41.998	0.000115999
42.123	0.000116319
42.2481	0.000115246
42.3731	0.000115119
42.4981	0.000112832
42.6231	0.000114337
42.7481	0.000113242
42.8731	0.000112713
42.9981	0.000114598
43.1231	0.000114382
43.2481	0.000114233
43.3731	0.000113443
43.4981	0.000115321
43.6231	0.000114695
43.7481	0.000112445
43.8731	0.000113257
43.9981	0.000115194
44.1231	0.000115216
44.2482	0.000113659
44.3732	0.000116446
44.4982	0.000115142
44.6232	0.000114583
44.7482	0.000115417
44.8732	0.000111782
44.9982	0.000112415
45.1232	0.00011158
45.2482	0.00011094
45.3732	0.000108138
45.4982	0.000109695
45.6232	0.000112609
45.7482	0.000110962
45.8732	0.000111275
45.9982	0.00011053
46.1232	0.000112214
46.2482	0.000114404
46.3733	0.000113242
46.4983	0.000114434
46.6233	0.000114203
46.7483	0.000114352
46.8733	0.000114397
46.9983	0.000114382
47.1233	0.000111402
47.2483	0.000113287
47.3733	0.000110232
47.4983	0.000109926
47.6233	0.000111633
47.7483	0.000111603
47.8733	0.000110277
47.9983	0.000111215
48.1233	0.00011009
48.2483	0.000109852
48.3733	0.000109666
48.4983	0.000111595
48.6233	0.000108116
48.7484	0.000112951
48.8734	0.000111364
48.9984	0.000109517
49.1218	0.000107937
49.2469	0.000112981
49.3734	0.000109077
49.4984	0.000110791
49.6234	0.000111089
49.7484	0.000108794
49.8734	0.00010866
49.9984	0.000106164
50.1234	0.000106283
50.2484	0.000108541
50.3734	0.000107542
50.4984	0.000108734
50.6234	0.000103906
50.7484	0.000106663
50.8735	0.000109181
50.9985	0.000104011
51.1235	0.000106417
51.2484	0.000104011
51.3735	0.000102841
51.4985	0.000105091
51.6235	0.000103392
51.7485	0.000103511
51.8735	0.000102737
51.9985	0.000103422
52.1235	0.000106641
52.2485	0.000106097
52.3735	0.000104428
52.4985	0.000108317
52.6235	0.000105389
52.7485	0.000108175
52.8735	0.000106901
52.9985	0.00010188
53.1236	0.000104353
53.2486	0.000104629
53.3736	0.000103847
53.4986	0.000103653
53.6236	0.000102975
53.7486	0.000102327
53.8736	0.000101187
53.9986	0.000102707
54.1236	9.87E-05
54.2486	0.000102155
54.3736	0.000105247
54.4986	0.000100628
54.6236	0.000102602
54.7486	0.000103742
54.8736	9.97E-05
54.9986	9.99E-05
55.1236	0.000100568
55.2486	0.000102424
55.3737	9.98E-05
55.4987	0.000100658
55.6237	0.000104771
55.7487	9.93E-05
55.8737	0.00010185
55.9987	9.88E-05
56.1237	0.000100092
56.2487	9.95E-05
56.3737	0.000101395
56.4987	0.000100859
56.6237	9.85E-05
56.7487	9.57E-05
56.8737	9.72E-05
56.9987	9.70E-05
57.1237	9.59E-05
57.2487	9.32E-05
57.3737	9.51E-05
57.4987	9.42E-05
57.6238	8.98E-05
57.7488	9.23E-05
57.8738	8.98E-05
57.9988	8.97E-05
58.1238	9.13E-05
58.2488	9.11E-05
58.3738	9.15E-05
58.4988	9.00E-05
58.6238	9.01E-05
58.7488	9.30E-05
58.8738	9.08E-05
58.9988	9.05E-05
59.1238	9.41E-05
59.2488	9.31E-05
59.3738	8.96E-05
59.4988	8.99E-05
59.6238	8.55E-05
59.7489	8.61E-05
59.8739	8.44E-05
59.9989	8.70E-05
60.123	8.92E-05
60.2489	8.68E-05
60.3739	8.72E-05
60.4989	8.46E-05
60.6239	8.64E-05
60.7489	8.17E-05
60.8739	7.93E-05
60.9989	7.99E-05
61.1239	8.06E-05
61.2489	8.18E-05
61.3739	7.83E-05
61.4989	7.66E-05
61.6239	7.93E-05
61.7489	8.07E-05
61.874	7.76E-05
61.999	8.18E-05
62.124	7.81E-05
62.249	7.95E-05
62.374	7.79E-05
62.499	7.79E-05
62.624	7.79E-05
62.749	7.81E-05
62.874	7.38E-05
62.999	7.40E-05
63.124	7.00E-05
63.2472	7.21E-05
63.3721	7.42E-05
63.499	7.22E-05
63.624	7.29E-05
63.749	7.22E-05
63.874	7.14E-05
63.999	7.13E-05
64.1241	6.85E-05
64.2491	7.00E-05
64.3741	7.13E-05
64.4991	7.00E-05
64.6241	6.72E-05
64.7491	6.73E-05
64.8741	6.49E-05
64.9991	6.63E-05
65.1241	6.53E-05
65.2491	6.64E-05
65.3741	6.59E-05
65.4991	6.34E-05
65.6241	6.49E-05
65.7491	5.95E-05
65.8741	6.26E-05
65.9991	6.08E-05
66.1241	6.34E-05
66.2492	6.13E-05
66.3742	5.99E-05
66.4992	5.83E-05
66.6242	6.45E-05
66.7492	6.10E-05
66.8742	5.94E-05
66.9986	6.29E-05
67.1241	5.87E-05
67.2492	6.09E-05
67.3742	5.87E-05
67.4992	5.99E-05
67.6242	6.16E-05
67.7492	5.97E-05
67.8742	5.78E-05
67.9992	5.77E-05
68.1242	5.89E-05
68.2492	5.53E-05
68.3742	5.72E-05
68.4993	5.53E-05
68.6243	5.66E-05
68.7493	5.49E-05
68.8741	5.54E-05
68.9989	5.12E-05
69.1243	5.21E-05
69.2493	4.95E-05
69.3743	5.32E-05
69.4993	5.22E-05
69.6243	5.33E-05
69.7493	5.43E-05
69.8743	5.37E-05
69.9993	5.19E-05
70.1243	5.13E-05
70.2493	5.51E-05
70.3743	5.54E-05
70.4993	5.17E-05
70.6244	5.23E-05
70.7494	5.07E-05
70.8744	5.33E-05
70.9994	5.18E-05
71.1244	5.06E-05
71.2494	5.05E-05
71.3744	5.02E-05
71.4994	5.09E-05
71.6244	4.75E-05
71.7494	4.81E-05
71.8744	4.52E-05
71.9994	4.77E-05
72.1244	4.54E-05
72.2494	4.93E-05
72.3744	4.60E-05
72.4994	4.84E-05
72.6244	4.52E-05
72.7494	4.54E-05
72.8745	4.43E-05
72.9995	4.71E-05
73.1245	4.39E-05
73.2495	4.64E-05
73.3745	4.29E-05
73.4995	4.15E-05
73.6245	4.18E-05
73.7495	4.08E-05
73.8745	4.29E-05
73.9995	4.32E-05
74.1245	4.23E-05
74.2495	4.31E-05
74.3745	4.30E-05
74.4995	4.15E-05
74.6245	4.17E-05
74.7495	4.20E-05
74.8745	4.15E-05
74.9995	4.04E-05
75.1246	4.26E-05
75.2496	3.88E-05
75.3746	4.05E-05
75.4996	4.07E-05
75.6246	3.77E-05
75.7496	4.00E-05
75.8746	3.81E-05
75.9996	3.99E-05
76.1246	4.07E-05
76.2496	3.93E-05
76.3746	3.57E-05
76.4996	3.54E-05
76.6246	3.64E-05
76.7496	3.82E-05
76.8746	3.58E-05
76.9996	3.48E-05
77.1246	3.72E-05
77.2496	3.82E-05
77.3747	3.68E-05
77.4997	3.69E-05
77.6247	3.61E-05
77.7497	3.41E-05
77.8747	2.99E-05
77.9997	3.72E-05
78.1247	3.47E-05
78.2497	3.18E-05
78.3747	3.09E-05
78.4997	3.04E-05
78.6247	3.26E-05
78.7497	3.30E-05
78.8747	3.27E-05
78.9997	2.97E-05
79.1247	2.94E-05
79.2497	2.67E-05
79.3747	2.72E-05
79.4998	2.79E-05
79.6248	2.86E-05
79.7498	2.88E-05
79.8748	2.62E-05
79.9998	2.75E-05
80.1248	2.72E-05
80.2498	2.93E-05
80.3748	2.60E-05
80.4998	2.79E-05
80.6248	2.66E-05
80.7498	2.51E-05
80.8748	2.70E-05
80.9998	2.77E-05
81.1248	2.77E-05
81.2498	2.48E-05
81.3748	2.64E-05
81.4998	2.69E-05
81.6248	2.83E-05
81.7499	2.56E-05
81.8749	2.35E-05
81.9999	2.60E-05
82.1249	2.66E-05
82.2499	2.69E-05
82.3749	2.62E-05
82.4999	2.29E-05
82.6249	2.36E-05
82.7499	2.53E-05
82.8749	2.19E-05
82.9999	2.37E-05
83.1249	2.14E-05
83.2499	2.14E-05
83.3749	1.88E-05
83.4999	1.80E-05
83.6249	2.44E-05
83.7499	2.01E-05
83.875	2.01E-05
84	1.95E-05
84.125	1.87E-05
84.25	2.03E-05
84.375	2.06E-05
84.5	2.12E-05
84.625	1.72E-05
84.75	1.96E-05
84.875	2.01E-05
85	2.06E-05
85	1.69E-05
-0.00386047	0.000107073
0.12114	0.000102729
0.246155	0.000105672
0.371155	0.000103698
0.49617	0.000104413
0.621017	0.000102856
0.746063	0.000103876
0.871094	0.000100427
0.99614	0.000103049
1.12119	0.000107475
1.2462	0.000104331
1.3712	0.000104301
1.4962	0.000101276
1.62122	0.000104152
1.74622	0.000105575
1.87122	0.000106767
1.99623	0.000101388
2.12123	0.000102826
2.24625	0.000102677
2.37125	0.000100628
2.49625	0.000100956
2.62126	0.000105113
2.74626	0.000101567
2.87126	0.000102923
2.99628	0.000102856
3.12128	0.000101075
3.24628	0.000102662
3.37129	0.000100174
3.49629	0.000102371
3.62131	0.000100762
3.74631	0.000105374
3.87131	0.000100203
3.99632	9.95E-05
4.12132	0.000103824
4.24632	0.000102669
4.37134	0.000100747
4.49606	0.000100241
4.62105	9.95E-05
4.74635	0.000101403
4.87135	0.000101105
4.99635	0.000103645
5.12137	0.00010372
5.24637	0.000100613
5.37138	0.000100516
5.49638	0.000100196
5.62138	9.87E-05
5.7464	0.000101448
5.8714	0.000104554
5.9964	0.000102155
6.12141	0.000104584
6.24641	9.90E-05
6.37143	0.000100308
6.49643	9.79E-05
6.62143	0.000101306
6.74644	0.000101097
6.87056	0.000102669
6.99646	0.000103944
7.12147	0.000100188
7.24647	0.000100323
7.37147	0.000100121
7.49648	9.90E-05
7.62148	0.000102103
7.74648	0.000102446
7.8715	0.000100442
7.9965	9.99E-05
8.1215	0.000101701
8.24651	9.83E-05
8.37151	0.000100717
8.49653	0.000101462
8.62153	0.000101157
8.74653	0.000101954
8.87154	0.000100762
8.99654	0.000100442
9.12155	0.000101969
9.24656	0.000100308
9.37156	0.00010226
9.49657	0.000104301
9.62157	0.000100248
9.74658	0.000101015
9.87159	0.000101775
9.99659	0.000101977
10.1216	0.000101001
10.2466	0.00010217
10.3716	0.000100889
10.4966	0.000103049
10.6216	0.000100367
10.7466	0.000103862
10.8716	0.000103683
10.9966	0.000100181
11.1216	9.92E-05
11.2466	0.000102133
11.3717	9.95E-05
11.4967	9.96E-05
11.6216	0.000101336
11.7464	9.90E-05
11.8711	1.00E-04
11.9961	0.00010036
12.121	0.000102222
12.2463	0.000100717
12.3711	0.000102215
12.4957	0.000100874
12.6204	9.98E-05
12.7454	9.93E-05
12.8711	0.000100464
12.9967	9.96E-05
13.1217	0.000100263
13.2467	0.000103944
13.3717	0.000100397
13.4967	0.000101634
13.6217	0.000102327
13.7468	0.000102886
13.8718	0.000103742
13.9968	9.93E-05
14.1218	0.000102737
14.2468	0.000102461
14.3718	0.000100099
14.4961	0.00010147
14.6214	0.000102237
14.7468	0.000101433
14.8718	0.000101395
14.9968	0.000103049
15.1218	0.000100412
15.2468	0.000100092
15.3718	0.000100956
15.4968	0.000101418
15.6218	0.000100852
15.7468	9.98E-05
15.8719	9.85E-05
15.9969	0.000100703
16.1219	0.000101425
16.2466	9.79E-05
16.3716	0.000100397
16.4969	9.86E-05
16.6219	9.98E-05
16.7469	9.98E-05
16.8719	9.85E-05
16.9969	9.89E-05
17.1219	9.93E-05
17.2469	0.000101641
17.3719	0.000100688
17.4969	9.78E-05
17.6219	9.89E-05
17.7469	0.000101358
17.872	9.99E-05
17.997	9.85E-05
18.122	0.000101679
18.247	9.95E-05
18.372	0.000102506
18.497	9.90E-05
18.622	9.99E-05
18.747	0.000100591
18.872	0.000102282
18.997	0.000100665
19.122	0.000104748
19.247	0.000100814
19.372	0.000101351
19.497	0.000103876
19.6211	0.000104316
19.7458	0.000105113
19.8709	0.000101299
19.996	0.000102535
20.1221	0.000103891
20.2471	0.000101671
20.3721	1.00E-04
20.4971	0.000100695
20.6221	0.000101805
20.7471	9.88E-05
20.8721	1.00E-04
20.9971	0.000101731
21.1221	0.000103936
21.2471	0.000101448
21.3721	0.000101403
21.4971	0.000101269
21.6221	0.000102282
21.7471	0.000103221
21.8721	0.000101947
21.9971	0.000102722
22.1221	0.000101775
22.2471	0.000103929
22.3722	0.000101507
22.4972	0.000106045
22.6222	0.000104622
22.7472	0.000104383
22.8722	0.000106119
22.9972	0.000104815
23.1222	0.000105888
23.2472	0.000103049
23.3722	0.000103422
23.4972	0.00010667
23.6222	0.000103578
23.7472	9.97E-05
23.8722	0.000103757
23.9972	0.000100792
24.1222	9.86E-05
24.2472	0.00010112
24.3722	0.000104182
24.4973	0.000104532
24.6223	0.000105493
24.7473	0.000103802
24.8723	9.98E-05
24.9973	0.000102982
25.1223	0.000105188
25.2473	0.000104525
25.3723	0.000103973
25.4973	0.000103705
25.6223	0.000103601
25.7473	0.000106842
25.8723	0.000103362
25.9973	0.00010635
26.1223	0.000102126
26.2473	0.00010629
26.3723	0.000102886
26.4973	0.000104785
26.6224	0.000106127
26.7474	0.000103005
26.8712	0.000105776
26.9974	0.000107587
27.1224	0.000102915
27.2474	0.000105501
27.3724	0.000104815
27.4974	0.000105419
27.6224	0.000106626
27.7474	0.000105359
27.8724	0.000104011
27.9974	0.000103839
28.1224	0.000103407
28.2474	0.000104398
28.3724	0.000105039
28.4974	0.000103944
28.6224	0.000107155
28.7474	0.000108019
28.8724	0.000104055
28.9975	0.000105665
29.1225	0.000105493
29.2475	0.000104413
29.3725	0.000103802
29.4975	0.000109323
29.6225	0.000103616
29.7475	0.000105449
29.8725	0.000104763
29.9975	0.00010679
30.1225	0.000105769
30.2475	0.000102833
30.3725	0.000107497
30.4975	0.000105985
30.6225	0.000106886
30.7475	0.000104033
30.8725	0.000106633
30.9975	0.000104607
31.1226	0.000106358
31.2476	0.000102491
31.3726	0.000104018
31.4976	0.000106678
31.6226	0.000107214
31.7476	0.000106797
31.8726	0.000106961
31.9976	0.000109159
32.1226	0.000106909
32.2476	0.000109323
32.3726	0.000107855
32.4976	0.000108168
32.6226	0.000110113
32.7476	0.000106805
32.8726	0.000107542
32.9976	0.000110046
33.1226	0.000106797
33.2477	0.000109934
33.3727	0.000111267
33.4977	0.000107319
33.6227	0.000108466
33.7477	0.000109718
33.8727	0.000107952
33.9977	0.000104405
34.1224	0.000109919
34.2476	0.000110515
34.3724	0.000108682
34.4971	0.000109546
34.6227	0.000105471
34.7477	0.000110679
34.8727	0.000112109
34.9977	0.00010831
35.1227	0.000107527
35.2477	0.00010755
35.3727	0.000108302
35.4977	0.000108809
35.6228	0.000110738
35.7478	0.000108332
35.8728	0.000110686
35.9978	0.000109531
36.1228	0.000110053
36.2477	0.000110008
36.3726	0.000110507
36.4978	0.00011202
36.6228	0.000109353
36.7474	0.000106104
36.8725	0.000110135
36.9978	0.000107266
37.1228	0.000109487
37.2478	0.000110709
37.3728	0.000108049
37.4978	0.000110545
37.6228	0.000109151
37.7479	0.0001098
37.8729	0.000110291
37.9979	0.000108846
38.1229	0.000112825
38.2479	0.00011053
38.3729	0.00010977
38.4979	0.000111275
38.6229	0.000109561
38.7479	0.000112325
38.8729	0.0001117
38.9979	0.000112154
39.1229	0.000111089
39.2479	0.000110962
39.3729	0.000111491
39.4979	0.00011348
39.6229	0.000112847
39.7479	0.00011196
39.8729	0.000112884
39.998	0.000112385
40.123	0.000111528
40.248	0.000114225
40.373	0.000115432
40.498	0.000114926
40.623	0.000116408
40.748	0.000114486
40.873	0.000110075
40.998	0.000114121
41.123	0.000116162
41.248	0.000113234
41.373	0.000115961
41.498	0.000113853
41.623	0.000115924
41.748	0.000114426
41.873	0.000111856
41.998	0.000117049
42.123	0.000113599
42.2481	0.000115708
42.3731	0.000113778
42.4981	0.000111118
42.6231	0.000112482
42.7481	0.000111089
42.8731	0.000111774
42.9981	0.000111275
43.1231	0.000111498
43.2481	0.000109449
43.3731	0.000112422
43.4981	0.000113935
43.6231	0.000111536
43.7481	0.000113681
43.8731	0.000112497
43.9981	0.000113227
44.1231	0.00011395
44.2482	0.000115589
44.3732	0.000112646
44.4982	0.000116118
44.6232	0.000115708
44.7482	0.000114866
44.8732	0.000110418
44.9982	0.000112035
45.1232	0.000113883
45.2482	0.000110209
45.3732	0.000112944
45.4982	0.000107289
45.6232	0.00010939
45.7482	0.000108839
45.8732	0.000109025
45.9981	0.000112251
46.1231	0.000112094
46.2481	0.000113681
46.3731	0.000112527
46.498	0.0001124
46.6227	0.000116036
46.7477	0.000113927
46.8726	0.000112162
46.9983	0.000111796
47.1233	0.000111506
47.2483	0.000113272
47.3733	0.000106775
47.4983	0.000109882
47.6233	0.000110142
47.7483	0.000113048
47.8733	0.000110567
47.9983	0.000109852
48.1233	0.000111148
48.2483	0.00010717
48.3733	0.000111692
48.4983	0.000110254
48.6233	0.000110507
48.7484	0.000113592
48.8734	0.000107266
48.9984	0.000110373
49.1234	0.000111431
49.2484	0.000112392
49.3734	0.000108697
49.4984	0.000109025
49.6234	0.000110314
49.7484	0.000109062
49.8734	0.00010708
49.9984	0.000108064
50.1234	0.000106633
50.2484	0.000105449
50.3734	0.00010454
50.4984	0.000106358
50.6234	0.000104361
50.7484	0.000105277
50.8735	0.000103638
50.9985	0.000102357
51.1235	9.94E-05
51.2485	0.000105396
51.3735	0.000102386
51.4985	0.000100092
51.6235	0.00010261
51.7485	0.000105173
51.8735	0.000102118
51.9985	0.000105098
52.1235	0.000103109
52.2485	0.000106484
52.3735	0.000104972
52.4985	0.000104458
52.6235	0.000104063
52.7485	0.000106872
52.8735	0.0001053
52.9985	0.000106536
53.1236	0.000103742
53.2486	0.000103042
53.3736	0.000102863
53.4986	0.000101813
53.6236	0.000105963
53.7486	0.000104145
53.8736	0.000103385
53.9986	0.000101716
54.1236	0.000103638
54.2486	9.92E-05
54.3732	0.000100554
54.4976	0.000101775
54.6231	0.000103496
54.7481	0.000102863
54.8736	1.00E-04
54.9986	0.000100434
55.1236	0.000102379
55.2486	0.000100159
55.3737	0.000102677
55.4987	0.00010103
55.6237	0.000102245
55.7487	9.99E-05
55.8737	9.97E-05
55.9987	0.000100077
56.1237	9.77E-05
56.2487	0.0001003
56.3737	9.83E-05
56.4987	9.98E-05
56.6237	9.80E-05
56.7487	9.66E-05
56.8737	9.75E-05
56.9987	9.74E-05
57.1237	9.53E-05
57.2487	9.67E-05
57.3737	9.31E-05
57.4987	9.29E-05
57.6238	9.52E-05
57.7488	9.40E-05
57.8738	8.96E-05
57.9988	9.01E-05
58.1238	9.29E-05
58.2488	8.71E-05
58.3738	9.00E-05
58.4988	8.94E-05
58.6238	9.03E-05
58.7488	9.25E-05
58.8738	9.48E-05
58.9988	9.04E-05
59.1238	9.09E-05
59.2488	9.38E-05
59.3738	8.84E-05
59.4988	9.07E-05
59.6238	8.69E-05
59.7489	8.65E-05
59.8725	8.64E-05
59.9989	8.29E-05
60.1239	8.57E-05
60.2489	8.51E-05
60.3739	8.54E-05
60.4989	8.50E-05
60.6239	8.58E-05
60.7489	8.12E-05
60.8739	8.02E-05
60.9989	7.85E-05
61.1239	7.95E-05
61.2489	7.61E-05
61.3739	7.90E-05
61.4989	7.86E-05
61.6239	7.78E-05
61.7489	8.07E-05
61.874	7.72E-05
61.999	8.04E-05
62.124	7.97E-05
62.249	7.74E-05
62.374	8.11E-05
62.499	7.64E-05
62.624	7.68E-05
62.749	7.50E-05
62.874	7.28E-05
62.999	7.28E-05
63.1238	7.40E-05
63.2489	7.32E-05
63.3738	7.58E-05
63.499	7.14E-05
63.624	7.32E-05
63.749	7.24E-05
63.874	7.20E-05
63.999	7.11E-05
64.1241	7.07E-05
64.2491	6.85E-05
64.3741	6.97E-05
64.4991	7.00E-05
64.6241	6.87E-05
64.7491	6.61E-05
64.8741	6.63E-05
64.9991	6.66E-05
65.1241	6.62E-05
65.2491	6.39E-05
65.3741	6.58E-05
65.4991	6.56E-05
65.6241	6.41E-05
65.7491	6.60E-05
65.8741	6.38E-05
65.9991	6.07E-05
66.1241	6.33E-05
66.2492	6.45E-05
66.3742	6.38E-05
66.4992	6.53E-05
66.6242	5.94E-05
66.7492	6.14E-05
66.8742	6.34E-05
66.9992	6.10E-05
67.1242	6.18E-05
67.2492	6.03E-05
67.3742	6.03E-05
67.4992	6.11E-05
67.6242	6.07E-05
67.7492	5.91E-05
67.8742	5.87E-05
67.9992	5.95E-05
68.1242	5.71E-05
68.2492	5.90E-05
68.3742	5.93E-05
68.4993	5.58E-05
68.6243	5.62E-05
68.7493	5.54E-05
68.8743	5.52E-05
68.9993	4.92E-05
69.1243	5.57E-05
69.2493	5.16E-05
69.3743	5.24E-05
69.4993	5.35E-05
69.6243	5.25E-05
69.7493	5.28E-05
69.8743	5.37E-05
69.9993	5.31E-05
70.1243	5.25E-05
70.2493	5.28E-05
70.3743	5.13E-05
70.4993	5.19E-05
70.6244	5.20E-05
70.7494	5.21E-05
70.8744	4.99E-05
70.9994	5.09E-05
71.1244	4.85E-05
71.2494	4.97E-05
71.3744	4.80E-05
71.4994	4.64E-05
71.6244	4.82E-05
71.7494	4.67E-05
71.8744	4.72E-05
71.9994	4.56E-05
72.1244	4.90E-05
72.2494	4.52E-05
72.3744	4.68E-05
72.4994	4.47E-05
72.6244	4.75E-05
72.7494	4.44E-05
72.8745	4.74E-05
72.9995	4.48E-05
73.1245	4.40E-05
73.2495	4.22E-05
73.3745	4.20E-05
73.4995	4.07E-05
73.6245	4.46E-05
73.7495	4.35E-05
73.8745	4.23E-05
73.9995	4.25E-05
74.1245	4.40E-05
74.2495	4.19E-05
74.3745	4.34E-05
74.4995	4.07E-05
74.6245	4.08E-05
74.7495	4.19E-05
74.8745	3.94E-05
74.9995	3.91E-05
75.1246	3.74E-05
75.2496	3.89E-05
75.3738	3.82E-05
75.4991	4.07E-05
75.6232	4.12E-05
75.7486	4.00E-05
75.8746	4.12E-05
75.9996	3.77E-05
76.1246	3.91E-05
76.2496	3.66E-05
76.3746	3.77E-05
76.4996	3.57E-05
76.6246	3.21E-05
76.7496	3.56E-05
76.8746	3.43E-05
76.9996	3.80E-05
77.1246	3.36E-05
77.2496	3.75E-05
77.3747	3.58E-05
77.4997	3.64E-05
77.6247	3.38E-05
77.7497	3.41E-05
77.8747	3.29E-05
77.9997	3.54E-05
78.1247	3.62E-05
78.2497	3.14E-05
78.3747	3.41E-05
78.4997	3.21E-05
78.6247	3.04E-05
78.7497	3.08E-05
78.8747	3.09E-05
78.9997	3.19E-05
79.1247	3.04E-05
79.2497	2.98E-05
79.3747	2.94E-05
79.4998	2.71E-05
79.6248	2.77E-05
79.7498	2.97E-05
79.8748	2.69E-05
79.9998	2.82E-05
80.1248	2.82E-05
80.2498	2.92E-05
80.3748	2.72E-05
80.4998	2.62E-05
80.6248	2.97E-05
80.7498	2.53E-05
80.8748	2.63E-05
80.9998	2.63E-05
81.1248	2.59E-05
81.2498	2.74E-05
81.3748	2.56E-05
81.4998	2.61E-05
81.6248	2.77E-05
81.7499	2.64E-05
81.8749	2.35E-05
81.9999	2.46E-05
82.1249	2.41E-05
82.2499	2.40E-05
82.3749	2.50E-05
82.4999	2.48E-05
82.6249	2.46E-05
82.7499	2.55E-05
82.8749	2.35E-05
82.9999	2.41E-05
83.1249	2.35E-05
83.2499	2.26E-05
83.3749	2.29E-05
83.4999	2.19E-05
83.6249	2.15E-05
83.7499	2.46E-05
83.875	2.28E-05
84	2.12E-05
84.125	2.28E-05
84.25	2.33E-05
84.375	2.08E-05
84.5	1.94E-05
84.6233	2.20E-05
84.7498	1.74E-05
84.8746	1.88E-05
84.9992	1.76E-05
85	2.00E-05
-0.00386047	0.000104182
0.12114	0.000102014
0.246155	0.000104048
0.371155	0.000104182
0.49617	0.000105471
0.62117	0.000106305
0.74617	0.000102193
0.871185	0.000103042
0.996185	0.000106574
1.12119	0.00010404
1.2462	0.000102804
1.3712	0.000101552
1.4962	0.000101731
1.62083	0.000102409
1.74602	0.000103571
1.87059	0.000102982
1.99623	0.000104584
2.12123	0.000100039
2.24625	0.000105434
2.37125	0.000103526
2.49625	0.00010635
2.62126	0.000101954
2.74626	0.000102543
2.87126	0.000103325
2.99628	9.69E-05
3.12128	0.000101597
3.24628	0.00010065
3.37129	0.000102029
3.49629	0.000101872
3.62131	0.000100546
3.74631	0.000100896
3.87131	9.68E-05
3.99632	0.000101835
4.12132	9.83E-05
4.24632	0.000102565
4.37134	0.000100568
4.49634	0.000101589
4.62134	0.000104629
4.74635	0.000104085
4.87135	0.000102632
4.99635	9.98E-05
5.12137	0.000105218
5.24637	0.000101746
5.37138	0.000100889
5.49638	9.89E-05
5.62138	0.000102438
5.7464	0.000101455
5.8714	9.97E-05
5.9964	0.000101008
6.12141	9.97E-05
6.24641	0.000100837
6.37143	0.000101619
6.49643	0.000100166
6.62143	0.000100114
6.74644	0.000100546
6.87144	0.00010103
6.99646	9.87E-05
7.12147	0.000100159
7.24647	0.000101597
7.37147	9.84E-05
7.49648	0.000103243
7.62148	9.93E-05
7.74648	9.88E-05
7.8715	0.000102759
7.9965	9.83E-05
8.1215	0.000103012
8.24651	0.000101299
8.37151	9.86E-05
8.49653	9.95E-05
8.62153	0.000101217
8.74653	9.98E-05
8.87124	0.000101842
8.99622	0.000102848
9.12119	0.000103452
9.24656	0.000104495
9.37156	0.00010255
9.49657	0.000100069
9.62157	0.000100635
9.74658	9.96E-05
9.87159	9.78E-05
9.99659	0.000102014
10.1216	0.000100323
10.2466	0.00010103
10.3716	0.000101082
10.4966	1.00E-04
10.6216	0.000102364
10.7466	0.000102923
10.8716	9.94E-05
10.9966	0.000101604
11.1216	0.000101842
11.2466	9.99E-05
11.3717	0.000100084
11.4967	9.70E-05
11.6212	9.97E-05
11.7464	0.000101053
11.8717	0.000100703
11.9967	0.000101209
12.1217	9.73E-05
12.2467	0.000103184
12.3717	9.88E-05
12.4967	0.000100233
12.6217	0.00010179
12.7467	0.000102044
12.8717	9.71E-05
12.9967	9.94E-05
13.1217	0.000102588
13.2467	9.91E-05
13.3717	0.000101023
13.4964	0.00010404
13.6215	0.000103012
13.7468	0.00010115
13.8718	0.000100203
13.9968	0.000100881
14.1218	0.000102386
14.2468	0.000102394
14.3718	9.94E-05
14.4968	9.91E-05
14.6218	9.94E-05
14.7468	0.000102252
14.8718	1.00E-04
14.9968	0.000101865
15.1218	0.000101015
15.2468	0.000102066
15.3718	0.00010039
15.4968	1.00E-04
15.6218	0.000101813
15.7468	0.000100494
15.8719	0.000101053
15.9969	9.80E-05
16.1219	9.85E-05
16.2469	9.95E-05
16.3719	0.000100889
16.4969	9.94E-05
16.6219	0.000102595
16.7469	0.000103795
16.8719	0.000102386
16.9969	9.86E-05
17.1219	0.000100404
17.2469	0.000100174
17.3719	0.000100844
17.4969	0.000100986
17.6219	0.000100196
17.7469	0.000101462
17.872	9.96E-05
17.997	0.000100889
18.122	0.000101209
18.247	0.000102044
18.372	0.000100874
18.497	0.000101462
18.622	0.00010264
18.747	0.000101835
18.872	0.000101917
18.997	0.00010144
19.122	0.000100986
19.247	0.000102357
19.372	0.000102498
19.497	0.000103057
19.622	0.000103496
19.7453	0.000101835
19.8699	0.000102118
19.997	0.000103325
20.1221	0.000102014
20.2471	0.000102714
20.3721	0.000100166
20.4971	9.97E-05
20.6221	0.000100308
20.7471	9.83E-05
20.8721	0.000102349
20.9971	0.000101619
21.1221	0.000101731
21.2471	0.000102506
21.3721	0.000100069
21.4971	0.000103839
21.6221	0.000101232
21.7471	0.000100412
21.8721	0.000105419
21.9971	0.000103042
22.1221	0.000102751
22.2471	0.000105985
22.3722	0.000102595
22.4972	0.000105218
22.6222	0.000103996
22.7472	0.000107348
22.8722	0.00010334
22.9972	0.000105955
23.1222	0.000104607
23.2472	0.000103161
23.3722	0.000104227
23.4972	0.000103154
23.6222	0.000104473
23.7472	0.000103012
23.8722	0.000104815
23.9972	0.000102461
24.1222	0.000101462
24.2472	0.000103154
24.3722	0.000101999
24.4973	0.000103184
24.6223	0.000106857
24.7473	0.000102431
24.8723	0.000101232
24.9973	0.000103362
25.1223	0.000101828
25.2473	0.000104197
25.3721	0.000104458
25.497	0.000105016
25.6223	0.000103616
25.7473	0.00010632
25.8723	0.000105985
25.9973	0.000104361
26.1223	0.000105449
26.2473	0.000106656
26.3723	0.000103511
26.4973	0.000105449
26.6224	0.000106782
26.7474	0.000106127
26.8724	0.000105642
26.9974	0.000106335
27.1224	0.000105948
27.2474	0.000104569
27.3724	0.000106298
27.4974	0.000106171
27.6224	0.000107542
27.7474	0.000105717
27.8724	0.000106365
27.9974	0.000107289
28.1224	0.000105285
28.2474	0.000103057
28.3724	0.000105709
28.4974	0.000105009
28.6224	0.000105165
28.7474	0.000106261
28.8724	0.000106074
28.9975	0.000108846
29.1225	0.00010594
29.2475	0.000108101
29.3725	0.000106477
29.4975	0.000103951
29.6225	0.000105009
29.7475	0.000107758
29.8725	0.000105501
29.9975	0.000104651
30.1225	0.000104167
30.2475	0.000105769
30.3725	0.000108429
30.4975	0.000107125
30.6222	0.000105933
30.7475	0.000105836
30.8725	0.000103511
30.9975	0.000102841
31.1226	0.000105903
31.2476	0.000106864
31.3726	0.000107319
31.4976	0.000106588
31.6226	0.000108429
31.7476	0.00010831
31.8726	0.000108086
31.9976	0.000107728
32.1226	0.000110962
32.2476	0.000106924
32.3726	0.000110046
32.4976	0.000109599
32.6226	0.000110202
32.7476	0.0001112
32.8722	0.000110925
32.9973	0.000108831
33.1222	0.000107609
33.2474	0.000109159
33.3719	0.000106112
33.4968	0.000106141
33.622	0.000110761
33.7465	0.000106544
33.8727	0.000107728
33.9977	0.000110455
34.1227	0.000106022
34.2477	0.000108541
34.3727	0.000105955
34.4977	0.00010673
34.6227	0.000107773
34.7477	0.000110284
34.8727	0.000108272
34.9977	0.000109897
35.1227	0.00010968
35.2473	0.00010866
35.3723	0.000107229
35.4973	0.000109859
35.6228	0.000108719
35.7478	0.000110321
35.8728	0.000108816
35.9978	0.000110537
36.1228	0.000107177
36.2478	0.000113279
36.3728	0.000114367
36.4978	0.000111349
36.6228	0.000109487
36.7478	0.000109271
36.8728	0.000109159
36.9978	0.000107751
37.1228	0.000108853
37.2478	0.000105009
37.3728	0.000109226
37.4978	0.00010793
37.6228	0.000108868
37.7479	0.000109777
37.8726	0.000108906
37.9973	0.000111782
38.1229	0.000110314
38.2479	0.000111156
38.3729	0.000111133
38.4979	0.000114404
38.6229	0.000114739
38.7479	0.000111416
38.8729	0.00011199
38.9979	0.000112974
39.1229	0.00011056
39.2479	0.000111536
39.3729	0.000112497
39.4979	0.000111402
39.6229	0.000113808
39.7479	0.000111282
39.8729	0.000109137
39.998	0.000111849
40.123	0.000112221
40.248	0.000110567
40.373	0.000110388
40.498	0.000114739
40.623	0.000113376
40.748	0.000115186
40.873	0.000113689
40.998	0.000114225
41.123	0.000116155
41.248	0.000113674
41.373	0.000115142
41.498	0.000114412
41.623	0.000113838
41.748	0.000114613
41.873	0.000115179
41.998	0.000114851
42.123	0.000116662
42.2481	0.000112415
42.3731	0.000114173
42.4981	0.000109882
42.6231	0.000114948
42.7481	0.000109725
42.8731	0.000108839
42.9981	0.000111737
43.1231	0.000110388
43.2481	0.00011123
43.3731	0.000113607
43.4981	0.000111022
43.6231	0.000113905
43.7481	0.00010968
43.8731	0.000112787
43.9981	0.000113897
44.1231	0.00011345
44.2482	0.000117213
44.3732	0.000115008
44.4982	0.00011538
44.6232	0.000114903
44.7482	0.000111737
44.8732	0.000111402
44.9982	0.000114233
45.1232	0.000109263
45.2482	0.000112735
45.3732	0.00011053
45.4982	0.000108034
45.623	0.000109375
45.7477	0.000110932
45.8732	0.000109949
45.9977	0.000110344
46.1232	0.000110411
46.2482	0.000109449
46.3733	0.000113518
46.4983	0.000113495
46.6233	0.000111737
46.7483	0.000111931
46.8733	0.000110291
46.9983	0.000111729
47.1233	0.000113369
47.2483	0.000110612
47.3733	0.000112363
47.4983	0.000109874
47.6233	0.0001093
47.7483	0.000108809
47.8733	0.000109181
47.9983	0.00010749
48.1233	0.000108153
48.2483	0.000109382
48.3733	0.000109986
48.4983	0.000109628
48.6233	0.000108764
48.7484	0.000107505
48.8726	0.000109502
48.9975	0.000110642
49.1221	0.000114128
49.2484	0.0001117
49.3734	0.000107952
49.4984	0.000107952
49.6234	0.000110306
49.7484	0.000110098
49.8734	0.000106842
49.9984	0.000108406
50.1234	0.00010711
50.2484	0.000107505
50.3734	0.000107289
50.4984	0.000107393
50.6234	0.0001048
50.7484	0.00010442
50.8735	0.000105478
50.9985	0.00010518
51.1235	0.000105471
51.2485	0.000106268
51.3735	0.000102662
51.4981	0.000105419
51.6225	0.000102662
51.7475	0.000104592
51.8735	0.000101276
51.9985	0.000103303
52.1235	0.000100814
52.2485	0.000103295
52.3735	0.000103429
52.4985	0.000106909
52.6235	0.000103482
52.7485	0.000103198
52.8735	0.000105888
52.9985	0.000107095
53.1236	0.000103765
53.2486	0.000105396
53.3736	0.000104122
53.4986	0.000101999
53.6236	0.000104093
53.7486	0.000101358
53.8736	0.000100956
53.9986	0.000104562
54.1236	0.000104219
54.2486	0.000103154
54.3736	0.000100233
54.4986	0.0001015
54.6236	0.000100747
54.7486	9.92E-05
54.8736	0.000100203
54.9986	9.99E-05
55.1236	0.000100993
55.2486	9.88E-05
55.3737	0.000103228
55.4987	9.95E-05
55.6237	0.000101008
55.7487	0.00010258
55.8737	0.000103102
55.9987	9.69E-05
56.1237	9.91E-05
56.2483	0.000100427
56.3737	9.87E-05
56.4985	0.000100606
56.6234	9.83E-05
56.7485	9.92E-05
56.8737	9.80E-05
56.9987	9.64E-05
57.1237	9.56E-05
57.2487	9.75E-05
57.3737	9.65E-05
57.4987	9.24E-05
57.6238	9.09E-05
57.7487	9.04E-05
57.8738	9.04E-05
57.9988	9.09E-05
58.1238	8.92E-05
58.2488	8.90E-05
58.3738	9.14E-05
58.4988	8.91E-05
58.6238	8.94E-05
58.7488	9.13E-05
58.8738	9.22E-05
58.9988	9.31E-05
59.1238	9.13E-05
59.2488	8.97E-05
59.3738	8.82E-05
59.4988	8.86E-05
59.6238	8.57E-05
59.7489	8.91E-05
59.8739	8.75E-05
59.9989	8.54E-05
60.1239	8.60E-05
60.2489	8.45E-05
60.3739	8.36E-05
60.4989	8.22E-05
60.6232	8.65E-05
60.7489	8.13E-05
60.8739	8.18E-05
60.9989	8.22E-05
61.1239	8.08E-05
61.2489	7.92E-05
61.3739	7.92E-05
61.4989	7.75E-05
61.6239	7.55E-05
61.7489	7.56E-05
61.874	7.77E-05
61.999	8.33E-05
62.124	7.81E-05
62.249	8.03E-05
62.374	7.75E-05
62.499	7.69E-05
62.624	7.41E-05
62.749	7.67E-05
62.874	7.48E-05
62.999	7.42E-05
63.124	7.41E-05
63.249	7.34E-05
63.374	7.13E-05
63.499	7.21E-05
63.624	7.18E-05
63.749	7.41E-05
63.874	6.81E-05
63.999	7.07E-05
64.1241	7.15E-05
64.2491	7.01E-05
64.3741	6.87E-05
64.4991	6.81E-05
64.6241	6.59E-05
64.7491	6.57E-05
64.8741	6.65E-05
64.9991	6.59E-05
65.1241	6.66E-05
65.2491	6.38E-05
65.3741	6.42E-05
65.4991	6.22E-05
65.6241	5.99E-05
65.7491	6.14E-05
65.8741	6.42E-05
65.9991	6.38E-05
66.1241	6.37E-05
66.2492	6.30E-05
66.3742	5.98E-05
66.4992	5.99E-05
66.6242	6.12E-05
66.7492	6.16E-05
66.8742	6.04E-05
66.9992	5.97E-05
67.1242	5.85E-05
67.2492	5.98E-05
67.3742	6.19E-05
67.4992	6.04E-05
67.6242	5.84E-05
67.7492	5.99E-05
67.8742	5.73E-05
67.9992	5.89E-05
68.1242	5.99E-05
68.2492	5.93E-05
68.3742	5.63E-05
68.4993	5.74E-05
68.6243	5.33E-05
68.7493	5.76E-05
68.8743	4.98E-05
68.9993	5.17E-05
69.1243	5.10E-05
69.2493	5.41E-05
69.3743	5.29E-05
69.4993	5.61E-05
69.6243	4.91E-05
69.7493	5.43E-05
69.8743	5.55E-05
69.9993	5.21E-05
70.1235	5.25E-05
70.2493	5.08E-05
70.3743	5.17E-05
70.4993	5.34E-05
70.6244	5.33E-05
70.7494	4.91E-05
70.8744	5.14E-05
70.9994	5.18E-05
71.1244	5.18E-05
71.2494	4.75E-05
71.3744	4.82E-05
71.4994	4.89E-05
71.6239	4.74E-05
71.7494	4.46E-05
71.8744	4.78E-05
71.9994	4.63E-05
72.1244	4.53E-05
72.2494	4.65E-05
72.3744	4.74E-05
72.4994	4.59E-05
72.6244	4.75E-05
72.7494	4.65E-05
72.8745	4.55E-05
72.9995	4.32E-05
73.1244	4.58E-05
73.2494	4.45E-05
73.3743	4.06E-05
73.4994	4.50E-05
73.6245	4.44E-05
73.7495	4.05E-05
73.8745	4.35E-05
73.9995	4.38E-05
74.1245	4.43E-05
74.2495	4.33E-05
74.3745	4.19E-05
74.4995	4.44E-05
74.6245	4.37E-05
74.7495	4.20E-05
74.8745	4.23E-05
74.9995	4.21E-05
75.1246	4.11E-05
75.2496	3.98E-05
75.3746	4.02E-05
75.4996	4.04E-05
75.6246	3.86E-05
75.7496	4.10E-05
75.8746	3.78E-05
75.9996	3.83E-05
76.1246	3.28E-05
76.2496	3.54E-05
76.3746	3.49E-05
76.4996	3.90E-05
76.6246	3.59E-05
76.7496	3.52E-05
76.8746	3.62E-05
76.9996	3.27E-05
77.1232	3.64E-05
77.2496	3.77E-05
77.3747	3.72E-05
77.4997	3.43E-05
77.6247	3.40E-05
77.7497	3.36E-05
77.8747	3.44E-05
77.9997	3.08E-05
78.1247	3.30E-05
78.2497	2.82E-05
78.3747	3.32E-05
78.4997	3.24E-05
78.6247	2.77E-05
78.7497	3.32E-05
78.8747	2.91E-05
78.9997	3.26E-05
79.1247	2.88E-05
79.2497	2.80E-05
79.3747	2.98E-05
79.4998	3.13E-05
79.6248	2.75E-05
79.7498	2.87E-05
79.8748	2.62E-05
79.9998	2.82E-05
80.1248	2.75E-05
80.2498	2.69E-05
80.3748	2.97E-05
80.4998	2.81E-05
80.6248	2.64E-05
80.7498	2.70E-05
80.8748	2.82E-05
80.9998	2.63E-05
81.1248	2.83E-05
81.2498	2.78E-05
81.3748	2.65E-05
81.4998	2.80E-05
81.6248	2.70E-05
81.7499	2.72E-05
81.8749	2.81E-05
81.9999	2.49E-05
82.1249	2.48E-05
82.2499	2.51E-05
82.3749	2.32E-05
82.4999	2.26E-05
82.6249	2.74E-05
82.7499	2.76E-05
82.8749	2.36E-05
82.9999	2.36E-05
83.1249	2.36E-05
83.2499	2.32E-05
83.3749	2.10E-05
83.4999	2.39E-05
83.6249	2.39E-05
83.7499	2.54E-05
83.875	2.37E-05
84	2.01E-05
84.125	2.31E-05
84.25	2.07E-05
84.375	2.13E-05
84.5	1.95E-05
84.625	2.41E-05
84.75	1.85E-05
84.875	2.18E-05
85	2.09E-05
85	1.99E-05
-0.00386047	0.000101962
0.12114	0.000104852
0.246155	0.000103236
0.371155	0.000102453
0.49617	0.000105449
0.62117	0.000101306
0.74617	0.000102409
0.871185	0.000105329
0.996185	0.000104353
1.12119	0.000106067
1.2462	0.000105449
1.3712	0.000106097
1.4962	0.000105843
1.62122	0.000101291
1.74622	0.000102535
1.87122	0.000100852
1.99623	0.000103258
2.12123	0.000101015
2.24625	0.000104584
2.37125	0.000103027
2.49625	0.000105978
2.62126	0.000103385
2.74626	0.000103586
2.87126	9.96E-05
2.99628	0.000101328
3.12128	0.000101641
3.24628	0.00010147
3.37129	0.000101202
3.49629	0.000102282
3.62131	0.00010103
3.74631	0.000102081
3.87131	0.000100174
3.99632	0.000100971
4.11981	0.000101768
4.24632	0.000102699
4.37134	0.000100933
4.49634	0.000102394
4.62134	0.000105411
4.74635	0.000101425
4.87135	0.000100889
4.99635	0.000100181
5.12137	0.000103817
5.24637	0.000102863
5.37138	0.000102155
5.49638	0.00010027
5.62138	0.000100472
5.7464	0.000101276
5.8714	0.000101842
5.9964	0.000100747
6.12141	9.98E-05
6.24641	0.000102416
6.37143	9.86E-05
6.49643	0.000100069
6.62143	0.000101209
6.74644	0.000100665
6.87144	0.000100926
6.99646	0.000101857
7.12147	0.00010176
7.24647	0.000103236
7.37147	0.000100382
7.49648	0.000101075
7.62148	9.81E-05
7.74648	0.000100129
7.87148	9.99E-05
7.99641	0.000101023
8.12149	0.000105165
8.24651	0.000102267
8.37151	0.000103236
8.49653	9.83E-05
8.62153	0.000103534
8.74653	0.000105128
8.87154	0.000102394
8.99654	0.000101462
9.11976	0.000105747
9.24499	9.91E-05
9.36938	0.000104391
9.49657	0.000100784
9.62157	0.000103795
9.74658	9.91E-05
9.87159	0.000101872
9.99659	0.000102751
10.1216	0.000101522
10.2466	0.000100054
10.3716	0.000102304
10.4966	0.00010182
10.6216	0.000100524
10.7466	0.000100896
10.8716	0.000102349
10.9966	0.00010366
11.1216	0.000100971
11.2466	9.98E-05
11.3717	9.85E-05
11.4967	9.97E-05
11.6217	9.85E-05
11.7467	9.85E-05
11.8717	9.71E-05
11.9967	0.000100129
12.1217	0.000101142
12.2467	9.95E-05
12.3717	0.000101381
12.4967	9.93E-05
12.6217	0.00010153
12.7467	9.94E-05
12.8717	0.000102148
12.9967	0.00010039
13.1217	0.000101559
13.2467	0.000101939
13.3717	0.000100531
13.4967	0.000103206
13.6217	0.000102982
13.7468	0.000101679
13.8704	0.000103787
13.9968	0.000103146
14.1218	0.000100635
14.2468	0.000100762
14.3718	0.000104078
14.4968	0.000100703
14.6218	0.000100144
14.7468	0.000100688
14.8718	0.000104018
14.9968	0.000102856
15.1218	9.98E-05
15.2468	0.000101857
15.3718	0.000102491
15.4968	0.000102275
15.6218	9.96E-05
15.7468	0.000100635
15.8719	9.77E-05
15.9969	0.000101716
16.1208	9.75E-05
16.2455	0.000100695
16.3719	9.91E-05
16.4969	9.80E-05
16.6219	9.75E-05
16.7469	9.89E-05
16.8719	9.97E-05
16.9969	9.84E-05
17.1219	9.81E-05
17.2469	9.97E-05
17.3719	9.86E-05
17.4969	9.98E-05
17.6219	0.000100568
17.7469	9.82E-05
17.872	0.000101232
17.997	0.000102938
18.122	9.97E-05
18.247	0.000101418
18.372	0.000101604
18.497	0.000103243
18.622	0.000100114
18.747	0.000101105
18.872	0.000101172
18.997	0.000103422
19.1207	0.000101649
19.247	0.000101515
19.372	9.97E-05
19.497	0.000101626
19.622	0.000102953
19.747	0.000103422
19.872	0.000101805
19.997	0.000102208
20.1221	9.86E-05
20.2471	0.000102818
20.3721	0.00010141
20.4971	0.000101902
20.6221	0.000100427
20.7471	0.000100554
20.8721	9.99E-05
20.9971	0.000102275
21.1221	0.000103929
21.2471	0.000101522
21.3721	0.000100524
21.4971	9.98E-05
21.6221	0.000103355
21.7471	0.000106171
21.8721	0.000104629
21.9971	0.000102081
22.1221	0.000104085
22.2471	0.00010369
22.3722	0.00010366
22.4972	0.000101269
22.6222	0.000103049
22.7472	0.000103772
22.8717	0.000101895
22.9968	0.000105061
23.1217	0.000102327
23.2466	0.000106507
23.3709	0.000104711
23.4972	0.000102126
23.6222	0.000100971
23.7472	0.000102632
23.8722	0.000102409
23.9972	0.000106566
24.1222	0.000101932
24.2472	0.000103601
24.3722	0.000103444
24.4973	0.000102349
24.6223	0.000102014
24.7473	0.00010185
24.8723	0.000103318
24.9973	0.00010182
25.1223	0.000104815
25.2473	0.00010556
25.3723	0.000102967
25.4973	0.000104487
25.6223	0.000103035
25.7473	9.88E-05
25.8723	0.000104726
25.9973	0.000102357
26.1223	0.000103027
26.2473	0.000103608
26.3723	0.000102006
26.4973	0.000104905
26.6224	0.00010527
26.7474	0.000103228
26.8724	0.000101768
26.9972	0.000103258
27.1223	0.000103884
27.247	0.000104145
27.3724	0.000107117
27.4974	0.000104055
27.6224	0.000102997
27.7474	0.000102915
27.8724	0.000103258
27.9974	0.000105381
28.1224	0.000104614
28.2474	0.000103549
28.3724	0.000105031
28.4974	0.000104897
28.6224	0.000104055
28.7474	0.000105896
28.8724	0.000106767
28.9975	0.0001053
29.1225	0.000103236
29.2475	0.000108079
29.3725	0.000105322
29.4975	0.000105501
29.6225	0.000104607
29.7475	0.000104554
29.8725	0.000105158
29.9975	0.000106335
30.1225	0.000106149
30.2475	0.000108392
30.3719	0.000107207
30.4967	0.000106954
30.6214	0.000101015
30.747	0.000103869
30.8715	0.000108399
30.9975	0.00010454
31.1226	0.000105165
31.2476	0.000108265
31.3726	0.000106968
31.4976	0.000105963
31.6226	0.00010717
31.7476	0.000108034
31.8726	0.000108302
31.9976	0.000106901
32.1226	0.00010942
32.2476	0.000106998
32.3726	0.000109792
32.4976	0.000109822
32.6226	0.000110195
32.7468	0.000107155
32.8717	0.000111849
32.9976	0.000110053
33.1226	0.000108093
33.2477	0.000110299
33.3727	0.000109159
33.4977	0.000106588
33.6227	0.00010679
33.7477	0.00010407
33.8727	0.000105605
33.9977	0.000106954
34.1227	0.000109978
34.2477	0.000106313
34.3727	0.000106641
34.4977	0.00010857
34.6227	0.000107714
34.7477	0.000108615
34.8727	0.000109032
34.9977	0.000108093
35.1227	0.000112124
35.2477	0.000109315
35.3727	0.000109844
35.4977	0.000109114
35.6228	0.000110679
35.7478	0.000108935
35.8728	0.000111551
35.9978	0.000110716
36.1228	0.00010977
36.2478	0.00010562
36.3728	0.000107229
36.4978	0.000112631
36.6228	0.000111282
36.7478	0.00011044
36.8728	0.000110344
36.9978	0.000108675
37.1228	0.000106216
37.2478	0.00011091
37.3728	0.000109397
37.4978	0.000108794
37.6228	0.00011006
37.7479	0.000111029
37.8729	0.00011053
37.9979	0.000109464
38.1229	0.000111782
38.2479	0.000110604
38.3729	0.000110671
38.4979	0.000113696
38.6229	0.000111014
38.7479	0.000110992
38.8729	0.000110247
38.9979	0.000110634
39.1229	0.000113152
39.2479	0.000111692
39.3729	0.000109226
39.4979	0.000111156
39.6224	0.000109785
39.7475	0.000109695
39.8729	0.000109397
39.998	0.000110776
40.123	0.000110485
40.248	0.000113197
40.3729	0.000112281
40.4979	0.000109569
40.623	0.000113912
40.748	0.000111603
40.8727	0.000110172
40.998	0.000114553
41.123	0.000112162
41.248	0.000112281
41.373	0.000114881
41.498	0.000115388
41.623	0.000112884
41.748	0.000111722
41.873	0.000113674
41.998	0.000113622
42.123	0.000114725
42.2481	0.000117034
42.3731	0.000114382
42.4981	0.000111655
42.6231	0.000116453
42.747	0.000111834
42.8718	0.000112549
42.9981	0.000113205
43.1231	0.000114508
43.2481	0.000114941
43.3731	0.000112795
43.4981	0.000114635
43.6231	0.000114486
43.7481	0.000111469
43.8731	0.000112959
43.9981	0.000114769
44.1231	0.000116982
44.2482	0.000113011
44.3732	0.000117682
44.4982	0.000116028
44.6232	0.000117846
44.7476	0.000115239
44.8725	0.000113868
44.9982	0.000109964
45.1232	0.000112236
45.2482	0.000110209
45.3732	0.000110403
45.4982	0.000110247
45.6232	0.00011009
45.7482	0.000110627
45.8732	0.000109576
45.9982	0.000113242
46.1232	0.000113853
46.2482	0.000115969
46.3733	0.000115708
46.4983	0.000113063
46.6233	0.000115015
46.7483	0.00011307
46.8731	0.000114717
46.9983	0.000113696
47.1233	0.00011126
47.2483	0.00011018
47.3733	0.00010936
47.4983	0.000111461
47.6233	0.000112318
47.7483	0.000111744
47.8733	0.000110768
47.9983	0.000111379
48.1233	0.000111394
48.2483	0.000111945
48.3733	0.000112355
48.4983	0.000107006
48.6233	0.000107892
48.7483	0.000111275
48.8732	0.000109844
48.9984	0.000109986
49.1234	0.000113376
49.2484	0.000109345
49.3734	0.000110127
49.4984	0.000114315
49.6234	0.000110142
49.7484	0.000109792
49.8734	0.000105069
49.9984	0.000104979
50.1234	0.000106082
50.2484	0.000105359
50.3734	0.000104674
50.4984	0.000108079
50.6234	0.000107885
50.7484	0.000106387
50.8735	0.000103862
50.9985	0.000105829
51.1235	0.000103012
51.2485	0.000104346
51.3735	0.000100479
51.4985	0.000100829
51.6235	0.00010144
51.7485	0.000105225
51.8731	0.000105389
51.9985	0.000102774
52.1235	0.000106201
52.2485	0.000104882
52.3735	0.000104465
52.4985	0.000105724
52.6235	0.000105449
52.7485	0.000107095
52.8735	0.000106529
52.9985	0.000107095
53.1236	0.000105702
53.2486	0.00010451
53.3736	0.000102617
53.4986	0.000101775
53.6236	0.000103683
53.7486	0.000105285
53.8736	0.00010293
53.9986	0.000103966
54.1236	0.000102386
54.2486	0.000103541
54.3736	0.000102856
54.4986	0.000104063
54.6236	0.000102237
54.7486	0.00010261
54.8736	0.000101015
54.9986	0.000100986
55.1236	0.000100174
55.2472	0.000100881
55.3737	9.93E-05
55.4987	0.000101567
55.6237	0.000102133
55.7487	0.00010112
55.8737	0.000100628
55.9987	0.000100464
56.1237	9.70E-05
56.2487	9.80E-05
56.3737	9.86E-05
56.4987	0.000100114
56.6237	9.99E-05
56.7483	9.84E-05
56.8737	9.90E-05
56.9987	9.32E-05
57.1237	9.83E-05
57.2487	9.80E-05
57.3737	9.48E-05
57.4987	9.39E-05
57.6238	9.44E-05
57.7488	9.34E-05
57.8738	9.52E-05
57.9988	9.04E-05
58.1238	9.18E-05
58.2488	8.85E-05
58.3738	8.96E-05
58.4988	8.81E-05
58.6238	9.00E-05
58.7488	9.16E-05
58.8738	9.08E-05
58.9988	9.23E-05
59.1238	9.19E-05
59.2488	9.21E-05
59.3738	8.62E-05
59.4988	8.89E-05
59.6238	8.68E-05
59.7489	8.52E-05
59.8739	8.59E-05
59.9989	8.82E-05
60.1239	8.77E-05
60.2489	8.39E-05
60.3739	8.57E-05
60.4989	8.17E-05
60.6239	8.58E-05
60.7489	8.18E-05
60.8739	8.12E-05
60.9989	8.11E-05
61.1239	8.14E-05
61.2489	7.52E-05
61.3739	7.63E-05
61.4989	7.72E-05
61.6239	8.23E-05
61.7489	7.84E-05
61.874	7.79E-05
61.999	8.35E-05
62.124	7.85E-05
62.249	7.85E-05
62.374	8.09E-05
62.499	7.72E-05
62.624	7.45E-05
62.749	7.25E-05
62.874	7.47E-05
62.999	7.34E-05
63.124	7.25E-05
63.249	7.30E-05
63.374	7.20E-05
63.4982	6.94E-05
63.623	7.30E-05
63.749	7.27E-05
63.874	7.26E-05
63.999	7.02E-05
64.1241	6.72E-05
64.2491	7.24E-05
64.3741	6.95E-05
64.4991	6.58E-05
64.6241	6.60E-05
64.7491	6.55E-05
64.8741	6.67E-05
64.9991	6.44E-05
65.1238	6.58E-05
65.2488	6.76E-05
65.3741	6.45E-05
65.4991	6.38E-05
65.6241	6.10E-05
65.7491	6.47E-05
65.8741	6.13E-05
65.9991	6.13E-05
66.1241	6.23E-05
66.2492	6.42E-05
66.3742	6.28E-05
66.4992	6.23E-05
66.6242	6.17E-05
66.7492	6.12E-05
66.8742	6.09E-05
66.9992	6.07E-05
67.1242	6.25E-05
67.2492	5.92E-05
67.3742	5.95E-05
67.4992	6.04E-05
67.6233	5.71E-05
67.748	5.41E-05
67.8733	6.07E-05
67.9992	5.53E-05
68.1242	5.78E-05
68.2492	5.92E-05
68.3742	5.91E-05
68.4993	5.82E-05
68.6243	5.41E-05
68.7493	5.45E-05
68.8743	5.50E-05
68.9993	5.30E-05
69.1243	5.40E-05
69.2493	5.46E-05
69.3743	5.68E-05
69.4993	5.06E-05
69.6243	5.28E-05
69.7493	5.43E-05
69.8743	5.40E-05
69.9993	5.27E-05
70.1243	5.17E-05
70.2493	5.41E-05
70.3743	5.27E-05
70.4993	5.24E-05
70.6225	5.47E-05
70.748	5.25E-05
70.8744	5.04E-05
70.9994	5.02E-05
71.1244	5.24E-05
71.2494	5.10E-05
71.3744	4.76E-05
71.4994	4.96E-05
71.6244	4.73E-05
71.7494	4.68E-05
71.8744	4.66E-05
71.9994	4.76E-05
72.1244	4.91E-05
72.2494	4.50E-05
72.3744	4.51E-05
72.4994	4.59E-05
72.6244	4.64E-05
72.7494	4.73E-05
72.8745	4.45E-05
72.9995	4.50E-05
73.1245	4.42E-05
73.2495	4.31E-05
73.3745	4.26E-05
73.4995	4.11E-05
73.6245	4.38E-05
73.7495	4.37E-05
73.8745	4.57E-05
73.9995	4.45E-05
74.1245	4.60E-05
74.2495	4.21E-05
74.3745	4.25E-05
74.4995	4.42E-05
74.6245	4.32E-05
74.7495	4.46E-05
74.8745	4.05E-05
74.9995	4.20E-05
75.1245	4.50E-05
75.2496	4.13E-05
75.3746	3.87E-05
75.4996	3.91E-05
75.6246	3.88E-05
75.7496	3.79E-05
75.8746	3.71E-05
75.9996	3.84E-05
76.1246	3.84E-05
76.2496	3.51E-05
76.3746	3.35E-05
76.4996	3.89E-05
76.6246	3.44E-05
76.7496	3.62E-05
76.8746	3.60E-05
76.9996	3.60E-05
77.1246	3.65E-05
77.2496	3.52E-05
77.3747	3.66E-05
77.4997	3.55E-05
77.6247	3.44E-05
77.7497	3.57E-05
77.8747	3.46E-05
77.9997	3.22E-05
78.1247	3.62E-05
78.2497	3.29E-05
78.3747	3.37E-05
78.4997	3.51E-05
78.6247	3.49E-05
78.7497	3.19E-05
78.8747	3.37E-05
78.9997	3.06E-05
79.1247	3.30E-05
79.2497	3.12E-05
79.3747	2.91E-05
79.4998	2.92E-05
79.6248	2.87E-05
79.7498	2.50E-05
79.8748	2.98E-05
79.9998	2.83E-05
80.1248	2.68E-05
80.2498	3.00E-05
80.3748	2.80E-05
80.4998	2.86E-05
80.6248	2.74E-05
80.7498	2.83E-05
80.8748	2.87E-05
80.9998	2.84E-05
81.1248	2.63E-05
81.2498	2.79E-05
81.3748	2.77E-05
81.4998	2.90E-05
81.6248	2.60E-05
81.7499	2.57E-05
81.8749	2.58E-05
81.9999	2.44E-05
82.1249	2.24E-05
82.2499	2.49E-05
82.3749	2.60E-05
82.4999	2.50E-05
82.6249	2.48E-05
82.7499	2.37E-05
82.8749	2.51E-05
82.9999	2.43E-05
83.1249	2.60E-05
83.2499	2.27E-05
83.3749	2.51E-05
83.4999	2.20E-05
83.6249	1.96E-05
83.7499	2.36E-05
83.875	2.48E-05
84	2.31E-05
84.125	2.19E-05
84.25	1.73E-05
84.375	1.88E-05
84.5	1.90E-05
84.625	1.71E-05
84.75	1.93E-05
84.875	2.03E-05
85	1.92E-05
85	2.00E-05
-0.00386047	0.000106976
0.12114	0.000106521
0.245972	0.000104227
0.370804	0.000103429
0.495758	0.000105352
0.62088	0.000103795
0.74617	0.000108973
0.870834	0.000105039
0.996185	0.000105344
1.12032	0.000102513
1.24532	0.000103675
1.3712	0.000102103
1.4962	0.000105538
1.62122	0.000102044
1.74622	0.00010445
1.87122	0.000107095
1.99623	0.000103556
2.12123	0.000102923
2.24625	0.000104256
2.37125	0.000102535
2.49625	0.00010153
2.62126	0.000102967
2.74626	0.00010188
2.87126	0.000101395
2.99628	0.000102468
3.12128	0.000101984
3.24554	0.000103795
3.3712	0.000101142
3.49582	0.000101328
3.62131	0.000100434
3.74527	0.000104711
3.87131	0.000102863
3.99632	9.99E-05
4.12132	0.000103675
4.24632	0.000100419
4.37134	0.000100703
4.49634	0.000103251
4.62134	0.000103422
4.74635	0.000100159
4.87135	0.000101015
4.99635	0.000102774
5.12137	0.000101798
5.24637	0.000103951
5.37138	0.000103817
5.49638	0.000102297
5.62138	0.000103623
5.7464	9.90E-05
5.8714	0.000102148
5.9964	0.00010115
6.12141	0.000101127
6.24641	0.000103109
6.37143	0.00010065
6.49643	9.98E-05
6.62143	0.000100844
6.74644	0.000101381
6.87144	0.000101179
6.99646	0.000102684
7.12147	9.97E-05
7.24647	0.00010115
7.37147	9.98E-05
7.49648	0.000101023
7.62148	0.000101589
7.74648	0.000101351
7.8715	0.000103392
7.9965	0.000101887
8.1215	9.99E-05
8.24651	0.000100486
8.37151	0.000100598
8.49653	0.000103191
8.62153	0.000101142
8.74653	0.000100971
8.87154	0.000102424
8.99654	9.82E-05
9.12155	0.000100762
9.24656	0.000102856
9.37156	0.000102073
9.49657	0.000102692
9.62157	0.000103154
9.74658	0.000102617
9.87159	0.000102915
9.99659	0.0001041
10.1216	0.000104122
10.2466	0.000102528
10.3716	0.00010264
10.4966	0.000102096
10.6216	9.99E-05
10.7466	0.00010074
10.8716	9.99E-05
10.9966	0.000101798
11.1216	0.000101857
11.2466	0.000101321
11.3717	0.000105523
11.4967	0.000102379
11.6217	0.000101328
11.7467	9.94E-05
11.8717	0.000101313
11.9967	0.000100166
12.1217	0.000100822
12.2467	0.000100226
12.3717	0.000100986
12.4967	0.000103154
12.6217	9.95E-05
12.7467	0.0001003
12.8717	0.000102386
12.9967	9.78E-05
13.1217	0.000102751
13.2467	0.000100621
13.3717	0.000101403
13.4967	0.000100695
13.6217	0.000103541
13.7468	0.000100337
13.8718	0.000102848
13.9968	0.000103333
14.1218	0.00010188
14.2468	0.000101328
14.3718	0.000102073
14.4968	0.000101522
14.6216	0.000101217
14.7468	0.00010103
14.8718	0.000100844
14.9968	0.000100956
15.1218	0.000102908
15.2468	0.000103109
15.3718	0.000102185
15.4968	0.000101537
15.6218	1.00E-04
15.7468	0.000100442
15.8719	9.80E-05
15.9969	0.000102796
16.1219	9.65E-05
16.2469	1.00E-04
16.3719	0.000101202
16.4969	9.96E-05
16.6219	9.84E-05
16.7469	1.00E-04
16.8719	0.000102267
16.9969	9.88E-05
17.1219	9.92E-05
17.2469	9.82E-05
17.3719	0.000100717
17.4969	0.000100315
17.6219	0.000100792
17.7469	0.000100732
17.872	0.000101537
17.997	0.000102081
18.122	0.00010258
18.247	0.000100688
18.372	0.000101604
18.497	0.00010147
18.622	0.000101582
18.747	0.000102938
18.872	0.000101939
18.997	0.000103556
19.122	0.000102178
19.247	0.000104249
19.3719	0.000101142
19.4969	0.000102535
19.6219	0.000102789
19.747	0.000105262
19.872	0.000103519
19.997	0.000102632
20.1221	0.000100278
20.2471	0.000100546
20.3721	0.000100002
20.4971	9.86E-05
20.6221	0.000103228
20.7471	9.84E-05
20.8721	9.54E-05
20.9971	9.74E-05
21.1221	0.00010293
21.2471	0.000100211
21.3721	9.93E-05
21.4971	9.80E-05
21.6221	0.000105255
21.7471	0.000101328
21.8721	0.000103936
21.9971	0.000104547
22.1221	0.000100047
22.2471	0.000102602
22.3722	0.000104234
22.4972	0.000100889
22.6222	0.000101202
22.7472	0.000103713
22.8722	0.000103169
22.9972	9.99E-05
23.1222	0.000104473
23.2472	0.000106417
23.3722	0.000100323
23.4972	0.000100881
23.6222	0.000100531
23.7472	0.00010217
23.8722	0.000104249
23.9972	9.97E-05
24.1221	0.000103772
24.2472	0.000100539
24.3722	0.000101351
24.4973	0.000102967
24.6223	0.000101202
24.7473	0.000104018
24.8723	0.000102766
24.9973	9.98E-05
25.1223	0.000103802
25.2473	0.000103519
25.3723	0.000104569
25.4973	0.000100226
25.6223	0.000102744
25.7473	0.000102133
25.8723	0.00010714
25.9973	0.000100717
26.1223	0.000104234
26.2473	0.000103385
26.3723	0.000100077
26.4973	0.000103072
26.6224	0.000104912
26.7474	0.000105881
26.8724	0.000103869
26.9974	0.000105232
27.1224	0.000101775
27.2474	0.000104078
27.3724	0.000103735
27.4974	0.000102766
27.6224	0.000104651
27.7474	0.00010106
27.8724	0.000102126
27.9974	0.000103109
28.1224	0.000103578
28.2474	0.00010252
28.3724	0.000104689
28.4974	0.000104227
28.6224	0.000107959
28.7474	0.000104048
28.8724	0.000108056
28.9973	0.000107497
29.1225	0.000108064
29.2475	0.000104055
29.3725	0.000104301
29.4975	0.000105702
29.6225	0.000105612
29.7475	0.000107453
29.8725	0.000105419
29.9975	0.000109062
30.1225	0.000105106
30.2475	0.000104838
30.3725	0.000105158
30.4975	0.000103876
30.6225	0.000106656
30.7475	0.000105918
30.8725	0.000107363
30.9975	0.000107378
31.1226	0.000106886
31.2476	0.000105016
31.3726	0.00010559
31.4976	0.000105955
31.6226	0.000109293
31.7476	0.000108332
31.8726	0.00010968
31.9976	0.000107714
32.1226	0.000107475
32.2476	0.000108883
32.3726	0.000108183
32.4976	0.000109762
32.6226	0.000108898
32.7476	0.000105471
32.8726	0.000109904
32.9976	0.000108853
33.1226	0.000105814
33.2477	0.000106223
33.3727	0.000103616
33.4977	0.000109077
33.6227	0.000108779
33.7477	0.000108272
33.8727	0.000109189
33.9977	0.000106216
34.1227	0.00010869
34.2477	0.000106551
34.3727	0.000107766
34.4977	0.000110224
34.6227	0.000110046
34.7477	0.000109055
34.8727	0.000111469
34.9977	0.000109494
35.1227	0.000109502
35.2477	0.00010866
35.3727	0.000105411
35.4977	0.000110254
35.6228	0.000111878
35.7478	0.000109077
35.8728	0.000110314
35.9978	0.000111469
36.1228	0.00011056
36.2478	0.000110731
36.3728	0.000110858
36.4978	0.000109897
36.6224	0.000108563
36.7478	0.000110485
36.8728	0.00010781
36.9978	0.000109889
37.1228	0.000109993
37.2478	0.000108056
37.3728	0.000108958
37.4978	0.000106685
37.6228	0.000109628
37.7479	0.000108742
37.8729	0.000113741
37.9979	0.000112765
38.1229	0.000112318
38.2479	0.00010904
38.3729	0.000109986
38.4979	0.000111334
38.6229	0.000110403
38.7479	0.000112929
38.8729	0.000112854
38.9979	0.000114397
39.1229	0.000110813
39.2479	0.000109628
39.3729	0.000114061
39.4979	0.000111729
39.6229	0.000110701
39.7479	0.000114017
39.8729	0.000110664
39.998	0.000114643
40.123	0.000110962
40.248	0.000113056
40.373	0.00011275
40.498	0.000115782
40.623	0.000115961
40.748	0.000115157
40.873	0.000116483
40.998	0.000114866
41.123	0.000116505
41.248	0.000114441
41.373	0.000114225
41.498	0.000114158
41.623	0.000115648
41.748	0.000113778
41.873	0.000116654
41.998	0.000115678
42.123	0.000111543
42.2481	0.000113845
42.3731	0.00011319
42.4981	0.000114732
42.6231	0.000112102
42.7481	0.000113018
42.8731	0.00011468
42.9981	0.000112042
43.1231	0.000113793
43.2481	0.000113138
43.3731	0.000115559
43.4981	0.000116796
43.6231	0.000114859
43.7481	0.000116066
43.8729	0.000113138
43.9981	0.000111908
44.1231	0.000113428
44.2482	0.00011509
44.3732	0.000119187
44.4982	0.00011392
44.6232	0.000114397
44.7482	0.000115186
44.8732	0.000113272
44.9982	0.000113562
45.1232	0.000111104
45.2482	0.00011132
45.3732	0.000110835
45.4982	0.000108108
45.6232	0.000108585
45.7482	0.000110582
45.8732	0.000112921
45.9982	0.000112989
46.1232	0.000114859
46.2482	0.000112772
46.3733	0.000113406
46.4983	0.00011389
46.6228	0.00011278
46.7476	0.000113756
46.8727	0.000112765
46.9983	0.000115149
47.1233	0.000110247
47.2483	0.000110545
47.3733	0.000109457
47.4983	0.000110463
47.6233	0.000113711
47.7483	0.000112556
47.8733	0.000111551
47.9983	0.00010635
48.1233	0.000108988
48.2483	0.000111484
48.3733	0.000112951
48.4983	0.000106112
48.6233	0.00010933
48.7484	0.000109703
48.8734	0.000108935
48.9984	0.000110135
49.1234	0.000110634
49.2484	0.000111297
49.3734	0.000110232
49.4984	0.000112601
49.6234	0.000111983
49.7484	0.000108988
49.8734	0.000110172
49.9984	0.000108876
50.1234	0.000109576
50.2484	0.000109062
50.3722	0.000107795
50.4984	0.000105091
50.6234	0.000109561
50.7484	0.000105121
50.8735	0.000105724
50.9985	0.000105896
51.1235	0.000105031
51.2485	0.000103303
51.3735	0.000103936
51.4985	0.000104234
51.6235	0.000105054
51.7485	9.99E-05
51.8735	0.000102878
51.9985	0.000101127
52.1235	0.000105456
52.2485	0.00010445
52.3735	0.000106447
52.4985	0.000104763
52.6216	0.000104838
52.7471	0.000103906
52.8735	0.000107229
52.9985	0.000108131
53.1236	0.000110075
53.2486	0.000104897
53.3736	0.000103318
53.4986	0.000104063
53.6236	0.000103809
53.7486	0.000102841
53.8736	0.000100293
53.9986	0.000102684
54.1236	9.95E-05
54.2486	0.000103809
54.3736	0.000103139
54.4986	0.000104815
54.6236	0.000101217
54.7486	0.00010182
54.8736	0.000102476
54.9986	9.95E-05
55.1217	0.000101828
55.2468	0.000102349
55.3737	0.000100404
55.4987	0.000100777
55.6237	9.98E-05
55.7487	0.000102379
55.8737	0.000100427
55.9987	0.000100531
56.1237	0.000100174
56.2487	0.000101127
56.3737	0.000101969
56.4987	9.82E-05
56.6237	9.80E-05
56.7487	9.94E-05
56.8718	9.76E-05
56.9987	0.000100427
57.1237	9.51E-05
57.2487	9.27E-05
57.3737	9.59E-05
57.4987	9.33E-05
57.6238	9.12E-05
57.7488	9.23E-05
57.8738	9.04E-05
57.9988	9.08E-05
58.1238	9.10E-05
58.2488	9.02E-05
58.3738	9.01E-05
58.4988	8.98E-05
58.6238	8.67E-05
58.7488	8.90E-05
58.8738	9.11E-05
58.9988	9.49E-05
59.1238	9.27E-05
59.2488	9.50E-05
59.3738	8.87E-05
59.4988	8.84E-05
59.6238	8.66E-05
59.7489	8.80E-05
59.8723	8.55E-05
59.9989	8.43E-05
60.1239	8.84E-05
60.2489	8.66E-05
60.3739	8.81E-05
60.4989	8.58E-05
60.6239	8.37E-05
60.7489	8.06E-05
60.8739	8.57E-05
60.9989	7.97E-05
61.1239	7.77E-05
61.2489	7.97E-05
61.3739	7.93E-05
61.4989	8.02E-05
61.6239	7.70E-05
61.7489	7.99E-05
61.874	8.14E-05
61.999	7.99E-05
62.124	7.76E-05
62.249	7.96E-05
62.374	7.87E-05
62.499	7.80E-05
62.624	7.90E-05
62.749	7.55E-05
62.874	7.36E-05
62.999	7.18E-05
63.124	7.41E-05
63.249	7.44E-05
63.374	7.37E-05
63.499	7.04E-05
63.624	7.34E-05
63.749	7.25E-05
63.874	7.04E-05
63.999	7.39E-05
64.1241	7.37E-05
64.2491	6.87E-05
64.3741	6.91E-05
64.4991	6.86E-05
64.6241	6.70E-05
64.7491	6.87E-05
64.8741	6.73E-05
64.9991	6.56E-05
65.1241	6.58E-05
65.2491	6.50E-05
65.3741	6.34E-05
65.4991	6.51E-05
65.624	6.39E-05
65.7491	6.13E-05
65.8741	6.23E-05
65.9991	6.39E-05
66.1241	6.10E-05
66.2492	6.37E-05
66.3742	6.28E-05
66.4992	6.33E-05
66.6242	6.23E-05
66.7492	6.22E-05
66.8742	6.01E-05
66.9992	6.25E-05
67.1242	6.33E-05
67.2492	5.88E-05
67.3742	5.94E-05
67.4992	6.24E-05
67.6242	5.99E-05
67.7492	6.18E-05
67.8742	6.18E-05
67.9992	5.96E-05
68.1242	6.12E-05
68.2492	5.66E-05
68.3742	6.04E-05
68.4993	5.83E-05
68.6243	5.75E-05
68.7493	5.51E-05
68.8743	5.42E-05
68.9993	5.65E-05
69.1243	5.32E-05
69.2493	5.33E-05
69.3743	5.45E-05
69.4993	5.11E-05
69.6243	4.95E-05
69.7493	5.46E-05
69.8743	5.67E-05
69.9993	5.18E-05
70.1243	5.10E-05
70.2493	5.19E-05
70.3743	5.45E-05
70.4993	5.53E-05
70.6244	5.52E-05
70.7494	5.42E-05
70.8744	5.20E-05
70.9994	5.37E-05
71.1244	4.90E-05
71.2494	5.08E-05
71.3744	5.40E-05
71.4994	5.21E-05
71.6244	5.12E-05
71.7494	4.79E-05
71.8744	4.98E-05
71.9994	4.59E-05
72.1244	4.57E-05
72.2494	4.81E-05
72.3744	4.64E-05
72.4994	4.59E-05
72.6244	4.34E-05
72.7493	4.81E-05
72.8745	4.51E-05
72.9995	4.70E-05
73.1245	4.54E-05
73.2495	4.21E-05
73.3745	4.33E-05
73.4995	4.47E-05
73.6245	4.28E-05
73.7495	4.20E-05
73.8745	4.48E-05
73.9995	4.44E-05
74.1245	4.39E-05
74.2495	4.37E-05
74.3745	4.28E-05
74.4995	4.31E-05
74.6245	4.21E-05
74.7495	4.17E-05
74.8745	4.16E-05
74.9995	4.02E-05
75.1246	3.74E-05
75.2496	4.35E-05
75.3746	4.16E-05
75.4996	3.96E-05
75.6246	3.84E-05
75.7494	3.77E-05
75.8742	3.87E-05
75.9996	3.85E-05
76.1245	3.71E-05
76.2493	3.67E-05
76.3746	3.51E-05
76.4996	3.87E-05
76.6246	3.95E-05
76.7496	3.80E-05
76.8746	3.65E-05
76.9996	3.99E-05
77.1246	3.44E-05
77.2496	3.80E-05
77.3747	3.50E-05
77.4997	3.71E-05
77.6247	3.73E-05
77.7496	3.45E-05
77.8747	3.55E-05
77.9994	3.52E-05
78.1247	3.25E-05
78.2497	3.36E-05
78.3747	3.13E-05
78.4997	3.02E-05
78.6247	3.25E-05
78.7497	3.02E-05
78.8747	3.21E-05
78.9997	3.39E-05
79.1247	3.25E-05
79.2497	3.17E-05
79.3747	3.02E-05
79.4998	3.31E-05
79.6248	2.85E-05
79.7498	2.90E-05
79.8748	3.07E-05
79.9998	2.89E-05
80.1248	3.00E-05
80.2498	2.83E-05
80.3735	2.90E-05
80.4998	2.77E-05
80.6248	2.93E-05
80.7498	2.67E-05
80.8748	2.60E-05
80.9998	2.93E-05
81.1248	2.71E-05
81.2498	2.62E-05
81.3748	2.80E-05
81.4998	2.53E-05
81.6248	2.62E-05
81.7499	2.75E-05
81.8749	2.57E-05
81.9999	2.19E-05
82.1249	2.37E-05
82.2499	2.70E-05
82.3749	2.25E-05
82.4999	2.75E-05
82.6249	2.53E-05
82.7499	2.58E-05
82.8749	2.62E-05
82.9999	2.25E-05
83.1249	2.18E-05
83.2499	2.02E-05
83.3749	2.59E-05
83.4999	2.31E-05
83.6249	2.26E-05
83.7499	2.14E-05
83.875	2.21E-05
84	2.37E-05
84.125	2.22E-05
84.25	2.13E-05
84.3749	1.94E-05
84.5	2.48E-05
84.625	1.92E-05
84.75	2.24E-05
84.875	2.24E-05
85	2.54E-05
85	2.15E-05
