Photodiode Viewing Angle (Degrees) - Plot 0	Lock-in Signal Amplitude (V) - Plot 0
-18.9987	0.00257112
-18.4987	0.00249101
-17.9987	0.00242712
-17.4987	0.00237085
-16.9987	0.00231172
-16.4987	0.00224496
-15.9987	0.00219251
-15.4987	0.00214292
-14.9987	0.0020981
-14.4987	0.00206949
-13.9987	0.00203325
-13.4987	0.00201322
-12.9987	0.00199319
-12.4987	0.00197412
-11.9987	0.00195505
-11.4987	0.00193692
-10.9987	0.00192357
-10.4987	0.0019064
-9.99876	0.00189782
-9.49876	0.0018797
-8.99876	0.00186063
-8.49876	0.00185586
-7.99876	0.00184251
-7.49878	0.00183774
-6.99878	0.00183678
-6.49878	0.0018282
-5.99879	0.00182153
-5.49879	0.00181008
-4.99879	0.00180531
-4.49879	0.00179101
-3.99879	0.0017891
-3.49881	0.0017891
-2.99881	0.00178719
-2.49889	0.00178338
-1.99883	0.00178433
-1.49883	0.00177575
-0.998825	0.00176717
-0.498825	0.0017624
0.00117493	0.00175858
0.50116	0.00175095
1.00116	0.00174905
1.50116	0.00175
2.00116	0.00174714
2.50114	0.00174046
3.00114	0.00173474
3.50114	0.00173379
4.00113	0.00172234
4.50113	0.00171853
5.00113	0.00172044
5.50113	0.00171757
6.00113	0.00171567
6.50111	0.00171185
7.00111	0.00170899
7.50111	0.00170518
8.0011	0.00170327
8.5011	0.00170041
9.0011	0.0016985
9.5011	0.00169183
10.0011	0.00168229
10.5011	0.00167561
11.0011	0.00167561
11.5011	0.00167371
12.0007	0.00166989
12.5007	0.00166322
13.0011	0.00165654
13.4992	0.00165177
13.9991	0.00165368
14.5011	0.00164414
15.0011	0.00164319
15.501	0.00164033
16.001	0.00163461
16.501	0.00162507
17.001	0.0016203
17.501	0.00161362
18.001	0.00160504
18.501	0.00160218
19.001	0.0015936
19.501	0.00159169
20.001	0.00158311
20.501	0.00157643
21.001	0.00157262
21.501	0.00156785
22.001	0.00156594
22.501	0.00156117
23.001	0.00156689
23.501	0.00156308
24.001	0.00156308
24.501	0.00155354
25.001	0.00154115
25.501	0.00153447
26.001	0.00152589
26.501	0.00151635
27.001	0.00150967
27.5009	0.00150586
28.0009	0.001503
28.5009	0.00150014
29.0009	0.00149251
29.5009	0.00148488
30.0009	0.00146771
30.5009	0.00145722
31.0009	0.00144578
31.5009	0.00143719
32.0009	0.00143052
32.5009	0.00142098
33.0009	0.0014124
33.5009	0.00140572
34.0009	0.00138856
34.4993	0.00137044
34.9992	0.00135709
35.5009	0.00134564
35.9986	0.00133706
36.5009	0.00132752
37.0009	0.00132085
37.5009	0.00130845
38.0009	0.00129987
38.5009	0.00128842
39.0009	0.00127507
39.5009	0.00126458
40.0009	0.00124741
40.5008	0.00123883
41.0008	0.00122453
41.4996	0.00121499
41.9992	0.00120259
42.5008	0.00119305
43.0008	0.00118447
43.5008	0.00117493
44.0008	0.0011654
44.5008	0.001153
45.0008	0.00113488
45.5008	0.0011263
46.0008	0.00111295
46.5008	0.00110436
47.0008	0.00109101
47.5008	0.00107671
48.0008	0.00106812
48.5008	0.00105763
49.0008	0.00104142
49.5008	0.00102616
50.0008	0.00101853
50.5008	0.00100709
51.0008	0.000991829
51.5008	0.000974659
52.0008	0.000957493
52.5008	0.000942234
53.0008	0.000927929
53.5007	0.000914577
54.0007	0.000903133
54.5007	0.000893597
55.0007	0.000879291
55.5007	0.000869755
56.0007	0.000854496
56.5007	0.000840191
57.0007	0.000824932
57.5007	0.000807766
58.0007	0.000794414
58.5007	0.000780109
59.0007	0.000770573
59.5007	0.000755314
60.0007	0.00074387
60.5007	0.00072575
61.0007	0.000710491
61.5007	0.00068951
62.0007	0.000675205
62.5007	0.000659946
63.0006	0.000643734
63.5005	0.000627521
64.0005	0.000613216
64.5007	0.000598911
65.0007	0.000580791
65.5007	0.000568394
66.0006	0.000551227
66.5006	0.000534061
67.0006	0.000523571
67.5006	0.000508312
68.0006	0.000495914
68.5006	0.000481607
69.0006	0.000468256
69.5006	0.000456812
70.0006	0.000435831
70.5006	0.000420572
71.0006	0.000405313
71.5006	0.000391008
72.0006	0.000370027
72.5006	0.000358583
73.0006	0.000345232
73.5006	0.000327112
73.9995	0.000311853
74.5006	0.00030327
75.0006	0.000286104
75.5006	0.000275614
76.0006	0.000261309
76.5006	0.000245096
77.0006	0.000229836
77.5006	0.000219346
78.0006	0.000205041
78.5006	0.000190736
79.0005	0.000182153
79.5005	0.000166894
80.0005	0.000153542
80.5002	0.000141145
81.0005	0.000129701
81.5005	0.000117302
82.0005	0.000107766
82.5005	9.44E-05
83.0005	8.39E-05
83.5005	7.34E-05
84.0005	6.39E-05
84.5005	5.53E-05
85.0005	5.53E-05
85.5005	6.01E-05
86.0005	6.87E-05
86.5005	7.72E-05
87.0005	7.63E-05
87.5005	7.53E-05
88.0005	7.53E-05
88.5005	7.72E-05
89.0005	8.01E-05
89.5001	7.82E-05
90.0002	7.82E-05
90.5005	7.53E-05
91.0005	7.82E-05
91.5005	7.53E-05
92.0005	7.63E-05
92.5005	7.34E-05
93.0004	7.44E-05
93.5004	7.34E-05
94.0004	7.06E-05
94.5004	7.72E-05
95.0004	7.25E-05
95.5004	6.87E-05
96.0004	7.06E-05
96.5004	6.96E-05
97.0004	6.96E-05
97.5004	7.25E-05
98.0004	6.58E-05
98.5004	6.58E-05
99.0004	6.58E-05
99.5004	6.58E-05
100	6.58E-05
100.5	6.20E-05
101	6.01E-05
101.5	5.72E-05
102	6.01E-05
102.5	5.53E-05
103	5.72E-05
103.5	5.25E-05
104	5.05E-05
104.5	4.58E-05
105	4.39E-05
105.5	4.10E-05
106	3.91E-05
106.5	3.53E-05
107	3.53E-05
107.5	3.05E-05
108	3.15E-05
108.5	2.57E-05
109	2.29E-05
109.5	2.38E-05
110	2.86E-05
110.5	2.29E-05
111	2.00E-05
111.5	2.19E-05
112	2.38E-05
112.5	2.57E-05
113	2.57E-05
113.5	2.86E-05
114	2.67E-05
114.5	3.15E-05
115	3.15E-05
115.5	4.10E-05
116	4.86E-05
116.5	6.01E-05
117	6.58E-05
117.5	6.96E-05
118	7.34E-05
118.5	7.82E-05
119	8.11E-05
119.5	8.58E-05
120	8.96E-05
120.5	9.92E-05
121	0.000105858
121.5	0.000110627
122	0.000117302
122.5	0.000121117
123	0.000132562
123.5	0.000141145
124	0.000148774
124.5	0.000152589
125	0.000163079
125.5	0.00017357
126	0.000181199
126.5	0.000189782
127	0.000200273
127.5	0.000208856
128	0.000209809
128.5	0.000196458
129	0.000178338
129.5	0.000153542
130	0.000129701
130.5	9.73E-05
131	7.44E-05
131.5	5.91E-05
132	6.20E-05
132.5	5.72E-05
133	5.91E-05
133.5	5.34E-05
134	5.34E-05
134.5	5.15E-05
135	5.05E-05
135.5	5.34E-05
136	5.05E-05
136.5	5.34E-05
137	5.53E-05
137.5	5.91E-05
138	6.29E-05
138.5	6.68E-05
139	7.06E-05
139.5	7.44E-05
140	7.34E-05
140.5	7.92E-05
141	7.72E-05
141.5	7.92E-05
142	7.53E-05
142.5	7.06E-05
143	6.87E-05
143.5	6.58E-05
144	6.10E-05
144.5	5.82E-05
144.999	5.53E-05
145.5	5.05E-05
146	5.44E-05
146.5	5.15E-05
147	5.25E-05
147.5	4.86E-05
148	5.05E-05
148.5	5.05E-05
149	5.05E-05
149.5	5.34E-05
150	5.15E-05
150	4.96E-05
-33.9987	0.00226785
-33.4987	0.00219251
-32.9987	0.00212862
-32.4987	0.00208093
-31.9987	0.00202276
-31.4987	0.001956
-30.9987	0.0019064
-30.4987	0.0018673
-29.9987	0.00182439
-29.4987	0.00179578
-28.9987	0.0017624
-28.4987	0.00174237
-27.9987	0.00173283
-27.4988	0.00171185
-26.9987	0.0016985
-26.4987	0.00168134
-25.9987	0.00167084
-25.4987	0.00166226
-24.9988	0.00165368
-24.4988	0.00163365
-23.9988	0.00162698
-23.4988	0.00162793
-22.9988	0.00161744
-22.4988	0.00161649
-21.9988	0.00161362
-21.4988	0.00160981
-20.9988	0.00160886
-20.4988	0.00160027
-19.9988	0.00159646
-19.4988	0.00159646
-18.9988	0.00159646
-18.4988	0.0015936
-17.9988	0.00160123
-17.4988	0.00160123
-17	0.00160027
-16.4988	0.0015936
-15.9988	0.00159264
-15.4988	0.00159169
-14.9988	0.00159169
-14.4988	0.00158978
-13.9988	0.00159741
-13.4988	0.00159455
-12.9988	0.00159646
-12.4989	0.00159169
-11.9989	0.00158788
-11.4989	0.00158978
-10.9989	0.00158883
-10.4989	0.00159169
-9.99887	0.00159264
-9.49887	0.0015955
-8.99887	0.00159741
-8.49889	0.00159932
-7.99889	0.00159837
-7.49889	0.00160123
-6.9989	0.00160123
-6.4989	0.00160313
-5.99895	0.00160695
-5.4989	0.00160123
-4.9989	0.00160123
-4.49892	0.00159646
-3.99892	0.00159646
-3.49893	0.00160027
-2.99893	0.00159837
-2.49893	0.00159741
-1.99893	0.00159837
-1.49893	0.00160123
-0.998932	0.00159932
-0.498947	0.00160504
0.00105286	0.00160313
0.501038	0.00160313
1.00104	0.00160695
1.50104	0.00160123
2.00104	0.00159646
2.50104	0.00159169
3.00104	0.00159264
3.50102	0.00158788
4.00102	0.00158978
4.50101	0.00158692
5.00101	0.00158597
5.50101	0.00158788
6.00101	0.00158597
6.50101	0.00158883
7.001	0.00158883
7.501	0.00159646
8.00098	0.00159455
8.50098	0.00159646
9.00098	0.00159455
9.50098	0.00158883
10.001	0.00158311
10.501	0.00158025
11.001	0.00157834
11.501	0.00157166
12.001	0.00157548
12.5009	0.00157643
13.0009	0.00157166
13.5009	0.00157643
14.0009	0.00157166
14.5009	0.00156594
15.0009	0.00155736
15.5009	0.0015564
16.0009	0.00155164
16.5009	0.00155068
17.0009	0.00154782
17.5009	0.00154973
18.0009	0.00154782
18.5009	0.00153828
19.0009	0.00154019
19.5009	0.00153256
20.0009	0.00152303
20.5009	0.00152016
21.0009	0.00152303
21.5009	0.0015173
22.0009	0.00151635
22.5009	0.00150967
23.0009	0.001503
23.5009	0.00150014
24.0009	0.00149251
24.5009	0.00148392
25.0009	0.00148392
25.5008	0.00147439
26.0008	0.00147916
26.5008	0.00147057
27.0008	0.0014658
27.5008	0.00146294
28.0008	0.00146104
28.5001	0.00145722
29.0008	0.00144578
29.5008	0.00144387
30.0008	0.00143433
30.5008	0.00142384
31.0008	0.00142575
31.5008	0.00141335
32.0008	0.00140763
32.5008	0.00140191
33.0008	0.00139428
33.5008	0.00138379
34.0008	0.00137997
34.5008	0.00137044
35.0008	0.00136376
35.5008	0.00135422
36.0008	0.00134373
36.5008	0.00133706
37.0008	0.00132561
37.5008	0.00131512
38.0008	0.00130749
38.5007	0.00130273
39.0007	0.00129891
39.5007	0.00128842
40.0007	0.00128556
40.5007	0.00127507
41.0007	0.00126076
41.5007	0.00125695
42.0007	0.00124455
42.5007	0.00123978
43.0007	0.00123502
43.5007	0.00122071
44.0007	0.00121499
44.5007	0.00120354
45.0007	0.00119687
45.5007	0.00118256
46.0007	0.00117207
46.5007	0.00115681
47.0007	0.00114919
47.5007	0.00113583
48.0007	0.00112439
48.5007	0.00111199
49.0007	0.00110245
49.5007	0.00109387
50.0007	0.00108052
50.5007	0.00107194
50.999	0.0010624
51.5006	0.00105
52.0006	0.00104237
52.5006	0.00103379
53.0006	0.00102521
53.5006	0.00101376
54.0006	0.00100327
54.5006	0.00098706
55.0006	0.000983246
55.5006	0.000972752
56.0006	0.000954632
56.5006	0.000944141
57.0006	0.000929836
57.5006	0.000918392
57.9992	0.000906948
58.5006	0.000900272
59.0006	0.000889782
59.5006	0.000878338
60.0006	0.00086594
60.5006	0.000859264
61.0006	0.000844005
61.5006	0.000831608
62.0006	0.000821117
62.5006	0.000809673
63.0006	0.000799183
63.5006	0.000786785
64.0005	0.000766758
64.5005	0.000755314
65.0005	0.000738148
65.5005	0.000722889
66.0005	0.000708584
66.5005	0.000692371
67.0005	0.00067902
67.5005	0.000664715
68.0005	0.000655178
68.5005	0.000634197
69.0005	0.000617985
69.5005	0.000606541
70.0005	0.000591282
70.5005	0.000581745
71.0005	0.00056744
71.5005	0.000555042
72.0005	0.000542644
72.5005	0.000526432
73.0005	0.000508312
73.5005	0.000494961
74.0005	0.000477793
74.5005	0.000465395
75.0005	0.000448229
75.5005	0.00043297
76.0005	0.000416758
76.5003	0.000400545
77.0005	0.000381472
77.5005	0.000369074
78.0004	0.000348093
78.5004	0.000334742
79.0004	0.000317575
79.5004	0.000294687
80.0004	0.000282289
80.5004	0.000271799
81.0004	0.000248911
81.5004	0.000229836
82.0004	0.000214578
82.5004	0.000197412
83.0004	0.000181199
83.5004	0.000160218
84.0003	0.00013733
84.5004	0.000110627
85.0004	7.72E-05
85.5004	5.34E-05
86.0004	3.72E-05
86.5004	3.81E-05
87.0004	4.58E-05
87.5004	4.96E-05
88.0004	5.05E-05
88.5004	4.77E-05
89.0004	4.58E-05
89.5004	4.58E-05
90.0004	4.39E-05
90.5003	4.20E-05
91.0003	3.72E-05
91.5003	3.81E-05
92.0003	3.72E-05
92.5003	3.72E-05
93.0003	3.24E-05
93.5003	3.05E-05
94.0003	2.86E-05
94.5003	3.24E-05
95.0003	2.86E-05
95.5003	2.57E-05
96.0003	2.57E-05
96.5003	2.57E-05
96.9999	2.29E-05
97.5003	2.19E-05
98.0003	2.57E-05
98.5003	2.10E-05
99.0003	2.38E-05
99.5003	1.91E-05
100	2.10E-05
100.5	2.29E-05
101	2.96E-05
101.5	3.43E-05
102	3.72E-05
102.5	4.39E-05
103	4.86E-05
103.5	5.15E-05
104	5.44E-05
104.5	5.53E-05
105	6.39E-05
105.5	6.87E-05
106	7.44E-05
106.5	8.11E-05
107	8.49E-05
107.5	9.25E-05
108	0.000105858
108.5	0.000109673
109	0.000120163
109.5	0.000130654
110	0.000136376
110.5	0.000145913
111	0.000162126
111.5	0.000167848
112	0.000178338
112.5	0.000188828
113	0.000201226
113.5	0.000219346
114	0.000236512
114.5	0.000254633
115	0.000269892
115.5	0.000291826
116	0.000311853
116.5	0.000328066
117	0.000343325
117.5	0.000355722
118	0.000343325
118.5	0.000300409
119	0.000248911
119.5	0.000198365
120	0.000141145
120.5	9.06E-05
121	5.53E-05
121.5	4.39E-05
122	4.20E-05
122.5	4.29E-05
123	4.67E-05
123.5	4.67E-05
124	5.15E-05
124.5	5.25E-05
125	5.63E-05
125.5	5.82E-05
126	5.91E-05
126.5	5.05E-05
127	5.15E-05
127.5	4.86E-05
128	4.58E-05
128.5	4.39E-05
129	4.39E-05
129.5	4.10E-05
130	4.20E-05
130.5	3.91E-05
131	4.20E-05
131.5	4.20E-05
132	4.29E-05
132.5	4.29E-05
133	4.29E-05
133.5	4.20E-05
134	3.81E-05
134.5	4.10E-05
135	4.29E-05
135	4.20E-05
-48.9987	0.00185777
-48.4999	0.00178242
-47.9987	0.0017233
-47.4987	0.00166989
-46.9987	0.00161935
-46.4987	0.00155354
-45.9987	0.00150586
-45.4987	0.0014639
-44.9987	0.00142766
-44.4987	0.00139809
-43.9987	0.00137234
-43.4993	0.00135804
-42.9995	0.00134087
-42.4987	0.00132371
-41.9987	0.00131512
-41.4987	0.00129796
-40.9987	0.00128461
-40.4987	0.00127888
-39.9988	0.00127126
-39.4988	0.00126076
-38.9988	0.00125314
-38.4988	0.00125027
-37.9988	0.00124169
-37.4988	0.00124455
-36.9988	0.00124265
-36.4988	0.00123978
-35.9988	0.00123597
-35.4988	0.00123502
-34.9988	0.00123597
-34.4988	0.00123502
-33.9988	0.00123692
-33.4988	0.00123978
-32.9988	0.00124265
-32.4988	0.00124646
-31.9988	0.00125123
-31.4988	0.00124551
-30.9988	0.00124932
-30.4988	0.00125314
-29.9988	0.00125314
-29.4988	0.00125314
-28.9988	0.00126458
-28.4988	0.00126363
-27.9988	0.00126267
-27.4989	0.00126458
-26.9989	0.00126553
-26.4989	0.00126553
-25.9989	0.00127221
-25.4989	0.00127602
-24.9989	0.00128079
-24.4991	0.00128365
-23.9989	0.00129128
-23.4989	0.00129128
-22.9989	0.00129987
-22.4989	0.00130082
-21.9989	0.00131036
-21.4989	0.0013094
-20.9989	0.00131608
-20.4989	0.00131512
-19.9989	0.00131608
-19.4989	0.00131703
-18.9989	0.00132371
-18.4989	0.00133038
-17.9989	0.00133038
-17.4989	0.00133038
-16.9989	0.00133706
-16.4989	0.00134183
-15.9989	0.00134373
-15.4992	0.0013485
-14.9989	0.00135041
-14.499	0.00135518
-13.999	0.00135709
-13.499	0.00136185
-12.999	0.00135995
-12.499	0.00135804
-11.999	0.00136185
-11.499	0.00136185
-10.999	0.00136376
-10.499	0.00137044
-9.99899	0.00137234
-9.49899	0.00137711
-8.99899	0.00137997
-8.49899	0.00138665
-7.999	0.00139046
-7.499	0.00139428
-6.99902	0.00140096
-6.49902	0.00140191
-5.99902	0.00140477
-5.49902	0.00140668
-4.99902	0.00140668
-4.49903	0.00140382
-3.99903	0.00140572
-3.49904	0.00140858
-2.99904	0.00141335
-2.49905	0.00141717
-1.99905	0.00141717
-1.49905	0.00142098
-0.999062	0.00142098
-0.499062	0.00142098
0.000938416	0.00142575
0.500931	0.00142384
1.00093	0.0014248
1.50092	0.00143052
2.00092	0.00142957
2.5009	0.00143243
2.9993	0.00143338
3.50091	0.00143338
4.00091	0.00143338
4.5009	0.00142766
5.0009	0.00143719
5.50089	0.00143338
6.00089	0.00143338
6.50088	0.00144101
7.00088	0.00144387
7.50088	0.00144006
8.00087	0.00144387
8.50087	0.00143719
9.00087	0.00143719
9.50086	0.00143433
10.0009	0.00143719
10.5008	0.00143147
11.0008	0.00143243
11.5008	0.00143052
12.0008	0.00143815
12.5008	0.00143719
13.0008	0.00143529
13.5008	0.00143338
14.0008	0.00143624
14.5008	0.00143529
15.0008	0.00143338
15.5008	0.00143147
16.0008	0.00142766
16.5008	0.00142575
17.0008	0.00142194
17.5008	0.00141907
18.0008	0.00142003
18.5008	0.00141907
19.0008	0.00141621
19.5008	0.00141431
20.0008	0.00141049
20.5008	0.00141049
21.0008	0.00140572
21.5008	0.00139714
22.0008	0.00139237
22.5008	0.00139523
23.0008	0.00139046
23.5007	0.00139428
24.0007	0.0013876
24.5007	0.00139237
25.0007	0.00139142
25.5007	0.0013876
26.0007	0.0013857
26.5007	0.00138474
27.0007	0.00137997
27.5007	0.00137807
28.0007	0.00137711
28.5007	0.00137425
29.0007	0.00136853
29.5007	0.00136948
30.0007	0.00136376
30.5007	0.00135709
31.0007	0.00135232
31.5007	0.00134183
32.0007	0.00134183
32.5007	0.00133229
33.0007	0.0013342
33.5007	0.00133038
34.0007	0.00132371
34.5007	0.00131322
35.0007	0.00131131
35.5007	0.00130654
36.0006	0.00130177
36.5006	0.00130273
37.0006	0.00130273
37.5006	0.00130273
38.0006	0.00130368
38.5006	0.00129796
39.0006	0.001297
39.5006	0.00128842
40.0006	0.00128079
40.5006	0.00128365
41.0006	0.00127984
41.5006	0.00127316
42.0006	0.0012703
42.5006	0.00126649
43.0006	0.00126267
43.5006	0.00125886
44.0006	0.00125695
44.5006	0.00125504
45.0006	0.001256
45.5006	0.00125314
46.0006	0.00125314
46.5006	0.00125123
47.0006	0.00125123
47.5006	0.00125409
48.0006	0.00125218
48.5006	0.00124551
49.0005	0.00123788
49.5005	0.00123406
49.9997	0.00122453
50.5005	0.00122166
51.0005	0.00122166
51.5005	0.00122548
52.0005	0.00122453
52.5005	0.00123215
53.0005	0.00122834
53.5005	0.00122834
54.0005	0.0012312
54.5005	0.00123502
55.0005	0.00124169
55.5005	0.00124837
56.0005	0.00125314
56.5005	0.00125695
57.0005	0.00125981
57.5005	0.00125886
58.0005	0.00125981
58.5003	0.00126839
59.0005	0.00127221
59.5005	0.00127888
60.0005	0.0012827
60.5005	0.00128175
61.0005	0.00128842
61.5005	0.0012951
62.0005	0.00129414
62.5005	0.00130273
63.0004	0.00131512
63.5004	0.00131894
64.0004	0.00131036
64.4995	0.00130749
65.0004	0.00131226
65.5004	0.00130749
66.0004	0.0012951
66.5004	0.00128175
67.0004	0.00127412
67.5004	0.00126649
68.0004	0.00126076
68.5004	0.00125027
69.0004	0.00124455
69.5004	0.00123978
70.0004	0.00123978
70.5004	0.00122548
71.0004	0.00122262
71.5004	0.00120927
72.0004	0.0011921
72.5004	0.00118924
73.0004	0.00117589
73.5004	0.00115586
74.0004	0.00114919
74.5004	0.00112916
75.0003	0.0011139
75.5003	0.00109006
76.0002	0.00107289
76.5003	0.00105191
77.0003	0.00103761
77.5003	0.00101376
78.0003	0.000991829
78.5003	0.000967029
79.0003	0.00094128
79.5003	0.000909809
80.0003	0.000874523
80.5003	0.000843052
81.0003	0.000811581
81.5003	0.000774387
82.0003	0.000740055
82.5003	0.000710491
83.0003	0.00067139
83.5003	0.000639919
84.0003	0.000595096
84.5003	0.000510219
85.0003	0.000418665
85.5003	0.000325205
86.0003	0.000235558
86.5003	0.000161172
87.0003	9.73E-05
87.5003	6.10E-05
88.0002	5.72E-05
88.5002	5.34E-05
89.0002	5.91E-05
89.5002	6.58E-05
90.0002	6.39E-05
90.5002	7.06E-05
91.0002	7.72E-05
91.5002	8.01E-05
92.0002	8.87E-05
92.5002	9.06E-05
93.0002	9.73E-05
93.5002	0.000105858
94.0002	0.000116349
94.5002	0.00011921
95.0002	0.000128747
95.5002	0.000134469
96.0002	0.000143052
96.5002	0.000152589
97.0002	0.000163079
97.5002	0.000174523
98.0002	0.000187875
98.5002	0.000206948
99.0002	0.000218392
99.5002	0.000236512
100	0.000254633
100.5	0.000271799
101	0.000294687
101.5	0.000313761
102	0.000331881
102.5	0.000356676
103	0.00038624
103.5	0.000409128
104	0.000436785
104.5	0.000470163
105	0.000519756
105.5	0.000570301
106	0.000634197
106.5	0.00069714
107	0.00077248
107.5	0.000805859
108	0.000768665
108.5	0.000677112
109	0.000561718
109.5	0.000415804
110	0.000280382
110.5	0.000156404
111	7.53E-05
111.5	5.53E-05
112	5.25E-05
112.5	5.05E-05
113	4.39E-05
113.5	4.58E-05
114	4.29E-05
114.5	3.91E-05
115	4.20E-05
115.5	4.39E-05
116	4.29E-05
116.5	4.20E-05
117	4.29E-05
117.5	4.58E-05
118	4.58E-05
118.5	4.39E-05
119	4.58E-05
119.5	4.67E-05
120	4.58E-05
120	4.77E-05
-63.9987	0.00145913
-63.4987	0.00137902
-62.9987	0.00131989
-62.4987	0.00126649
-61.9987	0.00120927
-61.4987	0.00114442
-60.9987	0.00109292
-60.4987	0.00105096
-59.9987	0.00100899
-59.4987	0.000983246
-58.9987	0.000955585
-58.4987	0.000936512
-57.9987	0.000918392
-57.4989	0.000905041
-56.9987	0.000888828
-56.4987	0.000873569
-55.9987	0.000861172
-55.4987	0.000849728
-54.9988	0.000841144
-54.4988	0.000832561
-53.9988	0.000820164
-53.4988	0.000815395
-52.9988	0.000810627
-52.4988	0.000810627
-51.9988	0.00080872
-51.4988	0.000806812
-50.9988	0.000803951
-50.4988	0.00080109
-49.9988	0.000793461
-49.4988	0.000799183
-48.9988	0.000797275
-48.4988	0.000802997
-47.9988	0.000802997
-47.4988	0.000802044
-46.9988	0.000802997
-46.4988	0.000806812
-45.9988	0.000807766
-45.4988	0.000809673
-44.9988	0.000807766
-44.4988	0.000812534
-43.9988	0.000816349
-43.4988	0.000814442
-42.9996	0.000821117
-42.5003	0.000824932
-41.9996	0.000828747
-41.4989	0.000830654
-40.9989	0.000836376
-40.4989	0.000839237
-39.9989	0.000843052
-39.4989	0.000845913
-38.9989	0.000846867
-38.4989	0.000853542
-37.9989	0.000858311
-37.4989	0.000858311
-36.9989	0.000864033
-36.4989	0.000868801
-35.9989	0.000872616
-35.4989	0.000880245
-34.9989	0.000881199
-34.4989	0.000885013
-34.0007	0.000890736
-33.4989	0.000893597
-32.9989	0.000899319
-32.4989	0.000905041
-31.9989	0.000905041
-31.4989	0.00091267
-30.9989	0.000916485
-30.4989	0.000922207
-29.9989	0.000924114
-29.499	0.000929836
-28.999	0.000931744
-28.499	0.000932697
-27.9996	0.000938419
-27.4992	0.000940327
-26.999	0.000944141
-26.499	0.000947002
-25.999	0.000952724
-25.499	0.000957493
-24.999	0.000958446
-24.499	0.000967029
-23.999	0.000975613
-23.499	0.000979431
-22.999	0.000981338
-22.499	0.000990875
-21.999	0.000991829
-21.499	0.000993736
-20.9992	0.000997551
-20.5	0.00100232
-19.999	0.00100327
-19.501	0.00100613
-18.999	0.00100995
-18.499	0.00101186
-17.999	0.00102044
-17.4991	0.00102044
-16.9991	0.00102711
-16.4991	0.00102807
-15.9991	0.00103188
-15.4991	0.00103474
-14.9991	0.00103379
-14.4991	0.00104047
-13.9991	0.00104237
-13.4991	0.00104333
-12.9991	0.0010481
-12.4991	0.00105191
-11.9991	0.00105096
-11.4991	0.00105382
-10.9991	0.00105572
-10.4991	0.00106049
-9.9991	0.00106526
-9.49911	0.00106908
-8.99911	0.00107575
-8.49912	0.00107289
-7.99912	0.00107194
-7.49912	0.00108052
-6.99913	0.00107766
-6.49913	0.00108243
-5.99913	0.00108434
-5.49914	0.00108243
-4.99915	0.0010872
-4.49915	0.00109101
-3.99915	0.00109387
-3.49915	0.00109578
-2.99916	0.00109578
-2.49916	0.00109959
-1.99916	0.00110245
-1.49917	0.00109769
-0.999176	0.00110436
-0.499184	0.00110818
0.000801086	0.00110818
0.500809	0.00110722
1.00081	0.00111771
1.50081	0.00111199
2.0008	0.00111581
2.5008	0.00111581
3.00079	0.00111676
3.50079	0.00111581
4.00079	0.00111867
4.50078	0.00111676
5.00078	0.00111581
5.50078	0.00111962
6.00077	0.00111962
6.50077	0.00112057
7.00077	0.00111962
7.50076	0.00112153
8.00076	0.00112153
8.50075	0.00112534
9.00075	0.00113107
9.50075	0.0011282
10.0007	0.00112725
10.5007	0.0011263
11.0007	0.00112725
11.5007	0.00112916
12.0007	0.00113202
12.5007	0.00113107
13.0007	0.00113107
13.5007	0.00113774
14.0007	0.00113011
14.5007	0.00113202
15.0007	0.00113107
15.5007	0.00112725
16.0007	0.00112916
16.5007	0.00113107
17.0007	0.00112534
17.5007	0.00112916
18.0007	0.00112725
18.5007	0.00113011
19.0007	0.00112916
19.5007	0.00113011
20.0007	0.00113202
20.5007	0.00113583
21.0006	0.00113393
21.5006	0.00113583
22.0006	0.00113679
22.5006	0.00113774
23.0006	0.00113965
23.5006	0.00113583
24.0005	0.00113965
24.5006	0.0011406
25.0006	0.0011406
25.5006	0.00114251
26.0006	0.00114251
26.5006	0.00114251
27.0006	0.00114442
27.5006	0.00114919
28.0006	0.00115109
28.5006	0.00115109
29.0006	0.00115586
29.5006	0.00116158
30.0006	0.00115968
30.5004	0.00116254
31.0004	0.00116635
31.5006	0.0011673
32.0006	0.00117017
32.5006	0.00116635
33.0006	0.00117017
33.5006	0.00117112
34.0005	0.00117207
34.5005	0.00117493
35.0005	0.0011778
35.5005	0.0011778
36.0005	0.00118447
36.5005	0.00118924
37.0005	0.00119496
37.5005	0.00119973
38.0005	0.00119973
38.5005	0.00120831
39.0005	0.00121785
39.5005	0.00122166
40.0005	0.00123311
40.5005	0.00123597
41.0005	0.00124551
41.5005	0.00124837
42.0005	0.0012579
42.5005	0.00126649
43.0005	0.00127698
43.5005	0.00128556
44.0005	0.0012951
44.5005	0.00130368
45.0005	0.00131799
45.5005	0.00132561
46.0005	0.00133134
46.5005	0.0013466
47.0005	0.00135804
47.5005	0.00137521
48.0004	0.00137997
48.5004	0.00139905
49.0004	0.00141431
49.5004	0.0014267
50.0004	0.00144196
50.5004	0.00146104
51.0004	0.00147343
51.5004	0.00149442
52.0004	0.0015173
52.5004	0.00154115
53.0004	0.00156976
53.5004	0.00160218
54.0004	0.00163365
54.5003	0.00166322
55.0004	0.00168896
55.5004	0.00172425
56.0004	0.00176144
56.5004	0.00180245
57.0004	0.00183583
57.5004	0.00187588
58.0004	0.0019312
58.5004	0.00197317
59.0004	0.00203992
59.5004	0.00210096
60.0004	0.00216772
60.5003	0.0022421
61.0002	0.0023184
61.5003	0.00240327
62.0003	0.00248148
62.5003	0.0025778
63.0003	0.00267603
63.5003	0.00279428
64.0003	0.00295736
64.5003	0.00311281
65.0003	0.0033064
65.5003	0.00350858
66.0003	0.00373365
66.5003	0.00392917
66.9999	0.00409797
67.4998	0.00428489
67.9993	0.00442126
68.5003	0.00452712
69.0003	0.00462344
69.5003	0.00472358
70.0003	0.00490478
70.5003	0.00510028
71.0003	0.0053263
71.5003	0.00554946
72.0003	0.00578311
72.5003	0.00605205
73.0002	0.00625041
73.5002	0.00641254
74.0002	0.0066109
74.5002	0.00679782
75.0002	0.00694469
75.5002	0.00704959
76.0002	0.00717929
76.5002	0.00733474
77.0002	0.00747684
77.5002	0.00754073
78.0002	0.00756648
78.5	0.00758842
79.0001	0.00758556
79.5002	0.00760654
80.0002	0.00769332
80.5002	0.00773147
81.0002	0.00768378
81.5002	0.00759605
82.0002	0.00738052
82.5002	0.00706676
83.0002	0.00636962
83.5002	0.00540641
84.0002	0.00442031
84.5002	0.00334741
85.0002	0.00239183
85.5002	0.00145531
86.0001	0.000778202
86.5001	0.000467302
87.0001	0.000429155
87.5001	0.000431063
88.0001	0.000446321
88.5001	0.000460627
89.0001	0.000481607
89.4998	0.000511173
89.9985	0.000557903
90.4996	0.00060368
91.0001	0.000662807
91.5001	0.000724796
92.0001	0.000805859
92.5001	0.000874523
93.0001	0.000942234
93.5001	0.00101567
94.0001	0.00109101
94.5001	0.00117303
95.0001	0.00125504
95.5001	0.00135041
96.0001	0.00146199
96.5001	0.00160504
97.0001	0.00172902
97.5001	0.00175381
98.0001	0.00158311
98.5001	0.00135709
99	0.00109387
99.5	0.000812534
100	0.000507358
100.5	0.0002203
101	6.58E-05
101.5	4.10E-05
102	3.91E-05
102.5	4.10E-05
103	4.39E-05
103.5	4.39E-05
104	4.67E-05
104.5	4.67E-05
104.999	4.77E-05
105	5.15E-05
